Release 2.20   
  
1                    *****PROGRAM LBLATM*****                              



 CONTROL CARD 3.1: MODEL AND OPTIONS 

          MODEL   =     6
          ITYPE   =     2
          IBMAX   =     0
          NOZERO  =     1
          NOPRNT  =     1
          NMOL    =    22
          IPUNCH  =     1
          IFXTYP  =     0
          MUNITS  =     0
          RE      =      0.000 KM
          HSPACE  =      0.000 KM
          VBAR    =      0.000 CM-1
          REF_LAT =      0.000 DEG



 CONTROL CARD 3.1 PARAMETERS WITH DEFAULTS:

          MODEL   =     6
          ITYPE   =     2
          IBMAX   =     0
          NOZERO  =     1
          NOPRNT  =     1
          NMOL    =    22
          IPUNCH  =     1
          IFXTYP  =     0
          MUNITS  =     0
          RE      =   6371.230 KM
          HSPACE  =    100.000 KM
          VBAR    =      0.000 CM-1
          REF_LAT =     45.000 DEG



 SLANT PATH SELECTED, ITYPE =     2



 CONTROL CARD 3.2:  SLANT PATH PARAMETERS

          H1      =     0.000000 KM
          H2      =    30.000000 KM
          ANGLE   =     0.000000 DEG
          RANGE   =     0.000000 KM
          BETA    =     0.000000 DEG
          LEN     =          0



 AUTOLAYERING SELECTED

          AVTRAT    =     1.50
          TDIFF1    =     3.00
          TDIFF2    =     3.00
          ALTD1     =     0.00
          ALTD2     =   100.00
    - Using LOWTRAN6 refractive index -
1ATMOSPHERIC PROFILE SELECTED IS: M =   6     U. S. STANDARD,  1976   


 CASE 2A: GIVEN H1, H2, ANGLE



 SLANT PATH PARAMETERS IN STANDARD FORM

          H1         =     0.000000 KM
          H2         =    30.000000 KM
          ANGLE      =     0.000000 DEG
          sin(ANGLE) =     0.000000
          PHI        =   180.000000 DEG
          sin(PHI)   =     0.000000
          HMIN       =     0.000000 KM
          LEN        =          0



 LBLRTM LAYER BOUNDARIES PRODUCED BY THE AUTOMATIC LAYERING ROUTINE AUTLAY
 THE USER SHOULD EXAMINE THESE BOUNDARIES AND MODIFY THEM IF APPROPRIATE
 THE FOLLOWING PARAMETERS ARE USED:

          AVTRAT    =     1.50       = MAX RATIO OF VOIGT WIDTHS
          TDIFF1    =     3.00       = MAX TEMP DIFF AT   0. KM
          TDIFF2    =     3.00       = MAX TEMP DIFF AT  30. KM
          ALZERO    =     0.040 CM-1 = AVERAGE LORENTZ WIDTH AT STP
          AVMWT     =    36.00       = AVERAGE  MOLECULAR WEIGHT
          VBAR      =     0.00  CM-1 = AVERAGE WAVENUMBER


    I      Z         P         T      LORENTZ   DOPPLER     ZETA     VOIGT     VOIGT     TEMP
          (KM)      (MB)      (K)      (CM-1)    (CM-1)              (CM-1)    RATIO     DIFF (K)

    1     0.000  1013.00000   288.20  0.04053   0.00000     1.000   0.04053      1.04       2.6
    2     0.400   965.67480   285.60  0.03881   0.00000     1.000   0.03881      1.04       2.6
    3     0.800   920.56055   283.00  0.03717   0.00000     1.000   0.03717      1.04       2.6
    4     1.200   877.00861   280.40  0.03557   0.00000     1.000   0.03557      1.05       2.6
    5     1.600   834.99811   277.80  0.03403   0.00000     1.000   0.03403      1.05       2.6
    6     2.000   795.00000   275.20  0.03255   0.00000     1.000   0.03255      1.05       2.6
    7     2.400   756.06140   272.60  0.03110   0.00000     1.000   0.03110      1.05       2.6
    8     2.800   719.02991   270.00  0.02972   0.00000     1.000   0.02972      1.05       2.6
    9     3.200   683.39880   267.40  0.02838   0.00000     1.000   0.02838      1.05       2.6
   10     3.600   649.14075   264.80  0.02709   0.00000     1.000   0.02709      1.05       2.6
   11     4.000   616.59998   262.20  0.02586   0.00000     1.000   0.02586      1.05       2.6
   12     4.400   584.95221   259.60  0.02466   0.00000     1.000   0.02466      1.05       2.6
   13     4.800   554.92877   257.00  0.02351   0.00000     1.000   0.02351      1.05       2.6
   14     5.200   526.09204   254.40  0.02240   0.00000     1.000   0.02240      1.05       2.6
   15     5.600   498.41818   251.80  0.02133   0.00000     1.000   0.02133      1.05       2.6
   16     6.000   472.20001   249.20  0.02032   0.00000     1.000   0.02032      1.05       2.6
   17     6.400   446.73975   246.60  0.01932   0.00000     1.000   0.01932      1.05       2.6
   18     6.800   422.65225   244.00  0.01838   0.00000     1.000   0.01838      1.05       2.6
   19     7.200   399.54886   241.40  0.01747   0.00000     1.000   0.01747      1.05       2.6
   20     7.600   377.41113   238.80  0.01659   0.00000     1.000   0.01659      1.05       2.6
   21     8.000   356.50000   236.20  0.01575   0.00000     1.000   0.01575      1.05       2.6
   22     8.400   336.24512   233.60  0.01494   0.00000     1.000   0.01494      1.05       2.6
   23     8.800   317.14105   231.00  0.01417   0.00000     1.000   0.01417      1.06       2.6
   24     9.200   298.87512   228.42  0.01343   0.00000     1.000   0.01343      1.06       2.6
   25     9.600   281.42831   225.86  0.01272   0.00000     1.000   0.01272      1.06       2.6
   26    10.000   265.00000   223.30  0.01204   0.00000     1.000   0.01204      1.06       2.6
   27    10.400   249.09088   220.70  0.01139   0.00000     1.000   0.01139      1.06       2.6
   28    10.800   234.13689   218.10  0.01077   0.00000     1.000   0.01077      1.50       1.4
   29    13.400   155.70358   216.70  0.00718   0.00000     1.000   0.00718      1.48       0.0
   30    15.900   105.13824   216.70  0.00485   0.00000     1.000   0.00485      1.48       0.0
   31    18.400    71.05040   216.70  0.00328   0.00000     1.000   0.00328      1.48       0.8
   32    20.900    48.03492   217.51  0.00221   0.00000     1.000   0.00221      1.48       2.5
   33    23.400    32.59806   220.00  0.00149   0.00000     1.000   0.00149      1.50       2.6
   34    26.000    21.89479   222.56  0.00100   0.00000     1.000   0.00100      1.49       2.5
   35    28.600    14.77366   225.10  0.00067   0.00000     1.000   0.00067      1.24       1.4
   36    30.000    11.97000   226.50  0.00054   0.00000     1.000   0.00054      0.00       0.0
1CALCULATION OF THE REFRACTED PATH THROUGH THE ATMOSPHERE


    I        ALTITUDE        THETA   DRANGE   RANGE     DBETA   BETA       PHI     DBEND  BENDING    PBAR     TBAR    RHOBAR
          FROM       TO
          (KM)      (KM)     (DEG)    (KM)     (KM)     (DEG)   (DEG)     (DEG)    (DEG)   (DEG)     (MB)      (K)  (MOL CM-3)

             H1 TO H2

    1     0.000     0.400    0.000    0.400    0.400    0.000    0.000  180.000    0.000    0.000  989.301  286.906 2.50E+19
    2     0.400     0.800    0.000    0.400    0.800    0.000    0.000  180.000    0.000    0.000  943.084  284.306 2.40E+19
    3     0.800     1.000    0.000    0.200    1.000    0.000    0.000  180.000    0.000    0.000  909.671  282.351 2.33E+19
    4     1.000     1.200    0.000    0.200    1.200    0.000    0.000  180.000    0.000    0.000  887.896  281.052 2.29E+19
    5     1.200     1.600    0.000    0.400    1.600    0.000    0.000  180.000    0.000    0.000  855.971  279.107 2.22E+19
    6     1.600     2.000    0.000    0.400    2.000    0.000    0.000  180.000    0.000    0.000  814.968  276.507 2.13E+19
    7     2.000     2.400    0.000    0.400    2.400    0.000    0.000  180.000    0.000    0.000  775.501  273.907 2.05E+19
    8     2.400     2.800    0.000    0.400    2.800    0.000    0.000  180.000    0.000    0.000  737.516  271.307 1.97E+19
    9     2.800     3.000    0.000    0.200    3.000    0.000    0.000  180.000    0.000    0.000  710.107  269.352 1.91E+19
   10     3.000     3.200    0.000    0.200    3.200    0.000    0.000  180.000    0.000    0.000  692.293  268.052 1.87E+19
   11     3.200     3.600    0.000    0.400    3.600    0.000    0.000  180.000    0.000    0.000  666.242  266.107 1.81E+19
   12     3.600     4.000    0.000    0.400    4.000    0.000    0.000  180.000    0.000    0.000  632.843  263.507 1.74E+19
   13     4.000     4.400    0.000    0.400    4.400    0.000    0.000  180.000    0.000    0.000  600.749  260.907 1.67E+19
   14     4.400     4.800    0.000    0.400    4.800    0.000    0.000  180.000    0.000    0.000  569.915  258.307 1.60E+19
   15     4.800     5.000    0.000    0.200    5.000    0.000    0.000  180.000    0.000    0.000  547.709  256.352 1.55E+19
   16     5.000     5.200    0.000    0.200    5.200    0.000    0.000  180.000    0.000    0.000  533.289  255.052 1.51E+19
   17     5.200     5.600    0.000    0.400    5.600    0.000    0.000  180.000    0.000    0.000  512.232  253.107 1.47E+19
   18     5.600     6.000    0.000    0.400    6.000    0.000    0.000  180.000    0.000    0.000  485.287  250.507 1.40E+19
   19     6.000     6.400    0.000    0.400    6.400    0.000    0.000  180.000    0.000    0.000  459.448  247.907 1.34E+19
   20     6.400     6.800    0.000    0.400    6.800    0.000    0.000  180.000    0.000    0.000  434.675  245.307 1.28E+19
   21     6.800     7.000    0.000    0.200    7.000    0.000    0.000  180.000    0.000    0.000  416.871  243.352 1.24E+19
   22     7.000     7.200    0.000    0.200    7.200    0.000    0.000  180.000    0.000    0.000  405.319  242.052 1.21E+19
   23     7.200     7.600    0.000    0.400    7.600    0.000    0.000  180.000    0.000    0.000  388.460  240.108 1.17E+19
   24     7.600     8.000    0.000    0.400    8.000    0.000    0.000  180.000    0.000    0.000  366.937  237.508 1.12E+19
   25     8.000     8.400    0.000    0.400    8.400    0.000    0.000  180.000    0.000    0.000  346.354  234.908 1.07E+19
   26     8.400     8.800    0.000    0.400    8.800    0.000    0.000  180.000    0.000    0.000  326.675  232.308 1.02E+19
   27     8.800     9.000    0.000    0.200    9.000    0.000    0.000  180.000    0.000    0.000  312.566  230.352 9.83E+18
   28     9.000     9.200    0.000    0.200    9.200    0.000    0.000  180.000    0.000    0.000  303.433  229.062 9.59E+18
   29     9.200     9.600    0.000    0.400    9.600    0.000    0.000  180.000    0.000    0.000  290.135  227.148 9.25E+18
   30     9.600    10.000    0.000    0.400   10.000    0.000    0.000  180.000    0.000    0.000  273.199  224.588 8.81E+18
   31    10.000    10.400    0.000    0.400   10.400    0.000    0.000  180.000    0.000    0.000  257.030  222.008 8.38E+18
   32    10.400    10.800    0.000    0.400   10.800    0.000    0.000  180.000    0.000    0.000  241.599  219.408 7.97E+18
   33    10.800    11.000    0.000    0.200   11.000    0.000    0.000  180.000    0.000    0.000  230.565  217.452 7.68E+18
   34    11.000    12.000    0.000    1.000   12.000    0.000    0.000  180.000    0.000    0.000  210.499  216.751 7.02E+18
   35    12.000    13.000    0.000    1.000   13.000    0.000    0.000  180.000    0.000    0.000  179.900  216.700 6.00E+18
   36    13.000    13.400    0.000    0.400   13.400    0.000    0.000  180.000    0.000    0.000  160.752  216.700 5.37E+18
   37    13.400    14.000    0.000    0.600   14.000    0.000    0.000  180.000    0.000    0.000  148.702  216.700 4.97E+18
   38    14.000    15.000    0.000    1.000   15.000    0.000    0.000  180.000    0.000    0.000  131.400  216.700 4.38E+18
   39    15.000    15.900    0.000    0.900   15.900    0.000    0.000  180.000    0.000    0.000  113.119  216.700 3.77E+18
   40    15.900    16.000    0.000    0.100   16.000    0.000    0.000  180.000    0.000    0.000  104.319  216.700 3.49E+18
   41    16.000    17.000    0.000    1.000   17.000    0.000    0.000  180.000    0.000    0.000   96.000  216.700 3.20E+18
   42    17.000    18.000    0.000    1.000   18.000    0.000    0.000  180.000    0.000    0.000   82.075  216.700 2.74E+18
   43    18.000    18.400    0.000    0.400   18.400    0.000    0.000  180.000    0.000    0.000   73.350  216.700 2.45E+18
   44    18.400    19.000    0.000    0.600   19.000    0.000    0.000  180.000    0.000    0.000   67.860  216.700 2.27E+18
   45    19.000    20.000    0.000    1.000   20.000    0.000    0.000  180.000    0.000    0.000   59.980  216.700 2.00E+18
   46    20.000    20.900    0.000    0.900   20.900    0.000    0.000  180.000    0.000    0.000   51.665  217.095 1.72E+18
   47    20.900    21.000    0.000    0.100   21.000    0.000    0.000  180.000    0.000    0.000   47.663  217.555 1.59E+18
   48    21.000    22.000    0.000    1.000   22.000    0.000    0.000  180.000    0.000    0.000   43.883  218.086 1.45E+18
   49    22.000    23.000    0.000    1.000   23.000    0.000    0.000  180.000    0.000    0.000   37.572  219.086 1.24E+18
   50    23.000    23.400    0.000    0.400   23.400    0.000    0.000  180.000    0.000    0.000   33.634  219.798 1.11E+18
   51    23.400    24.000    0.000    0.600   24.000    0.000    0.000  180.000    0.000    0.000   31.160  220.295 1.02E+18
   52    24.000    25.000    0.000    1.000   25.000    0.000    0.000  180.000    0.000    0.000   27.607  221.086 9.03E+17
   53    25.000    26.000    0.000    1.000   26.000    0.000    0.000  180.000    0.000    0.000   23.694  222.067 7.71E+17
   54    26.000    27.500    0.000    1.500   27.500    0.000    0.000  180.000    0.000    0.000   19.665  223.251 6.35E+17
   55    27.500    28.600    0.000    1.100   28.600    0.000    0.000  180.000    0.000    0.000   16.103  224.534 5.18E+17
   56    28.600    30.000    0.000    1.400   30.000    0.000    0.000  180.000    0.000    0.000   13.373  225.774 4.27E+17
1INTEGRATED ABSORBER AMOUNTS BY LAYER


    I  LAYER BOUNDARIES                               INTEGRATED AMOUNTS (MOL CM-2)
          FROM       TO     AIR       H2O       CO2        O3       N2O        CO       CH4        O2        NO   
          (KM)      (KM)                SO2       NO2       NH3      HNO3        OH        HF       HCL       HBR   
                                         HI       CLO       OCS      H2CO      HOCL        N2   
    1     0.000     0.400 9.986E+23 7.324E+21 3.274E+20 2.690E+16 3.175E+17 1.478E+17 1.687E+18 2.073E+23 2.976E+14
                                    2.923E+14 2.282E+13 4.960E+14 5.138E+13 4.365E+10 9.921E+09 9.372E+14 1.687E+12
                                    2.976E+12 9.921E+09 5.933E+14 2.037E+15 8.146E+12 7.748E+23
    2     0.400     0.800 9.607E+23 6.396E+21 3.152E+20 2.692E+16 3.056E+17 1.404E+17 1.624E+18 1.996E+23 2.865E+14
                                    2.714E+14 2.197E+13 4.775E+14 5.306E+13 4.202E+10 9.551E+09 8.037E+14 1.624E+12
                                    2.865E+12 9.551E+09 5.673E+14 1.419E+15 8.911E+12 7.459E+23
    3     0.800     1.000 4.671E+23 2.891E+21 1.533E+20 1.349E+16 1.487E+17 6.760E+16 7.899E+17 9.711E+22 1.394E+14
                                    1.285E+14 1.069E+13 2.323E+14 2.721E+13 2.044E+10 4.646E+09 3.583E+14 7.899E+11
                                    1.394E+12 4.646E+09 2.746E+14 5.397E+14 4.771E+12 3.629E+23
    4     1.000     1.200 4.581E+23 2.694E+21 1.504E+20 1.349E+16 1.458E+17 6.585E+16 7.748E+17 9.525E+22 1.367E+14
                                    1.230E+14 1.048E+13 2.261E+14 2.758E+13 2.005E+10 4.653E+09 3.317E+14 7.748E+11
                                    1.367E+12 4.558E+09 2.684E+14 4.432E+14 4.899E+12 3.559E+23
    5     1.200     1.600 8.882E+23 4.820E+21 2.917E+20 2.696E+16 2.829E+17 1.264E+17 1.503E+18 1.848E+23 2.652E+14
                                    2.283E+14 2.033E+13 4.287E+14 5.596E+13 3.890E+10 9.604E+09 5.904E+14 1.503E+12
                                    2.652E+12 8.841E+09 5.181E+14 6.456E+14 9.913E+12 6.905E+23
    6     1.600     2.000 8.536E+23 4.159E+21 2.805E+20 2.697E+16 2.720E+17 1.198E+17 1.445E+18 1.777E+23 2.550E+14
                                    2.068E+14 1.955E+13 3.997E+14 5.716E+13 3.740E+10 1.003E+10 5.057E+14 1.445E+12
                                    2.550E+12 8.501E+09 4.947E+14 4.205E+14 1.008E+13 6.639E+23
    7     2.000     2.400 8.199E+23 3.515E+21 2.696E+20 2.658E+16 2.614E+17 1.135E+17 1.389E+18 1.707E+23 2.451E+14
                                    1.847E+14 1.879E+13 3.638E+14 5.813E+13 3.595E+10 1.105E+10 4.334E+14 1.389E+12
                                    2.451E+12 8.170E+09 4.722E+14 2.950E+14 9.834E+12 6.381E+23
    8     2.400     2.800 7.872E+23 2.906E+21 2.590E+20 2.578E+16 2.511E+17 1.074E+17 1.334E+18 1.640E+23 2.354E+14
                                    1.627E+14 1.805E+13 3.229E+14 5.887E+13 3.453E+10 1.282E+10 3.715E+14 1.334E+12
                                    2.354E+12 7.848E+09 4.505E+14 2.250E+14 9.194E+12 6.129E+23
    9     2.800     3.000 3.823E+23 1.260E+21 1.258E+20 1.262E+16 1.220E+17 5.161E+16 6.480E+17 7.967E+22 1.144E+14
                                    7.402E+13 8.767E+12 1.478E+14 2.976E+13 1.677E+10 7.165E+09 1.655E+14 6.480E+11
                                    1.144E+12 3.812E+09 2.177E+14 9.173E+13 4.375E+12 2.977E+23
   10     3.000     3.200 3.745E+23 1.144E+21 1.233E+20 1.242E+16 1.195E+17 5.025E+16 6.350E+17 7.806E+22 1.121E+14
                                    6.913E+13 8.591E+12 1.381E+14 2.988E+13 1.643E+10 7.721E+09 1.533E+14 6.350E+11
                                    1.121E+12 3.735E+09 2.126E+14 8.083E+13 4.194E+12 2.917E+23
   11     3.200     3.600 7.251E+23 1.974E+21 2.387E+20 2.420E+16 2.315E+17 9.651E+16 1.230E+18 1.512E+23 2.170E+14
                                    1.238E+14 1.664E+13 2.463E+14 5.990E+13 3.183E+10 1.727E+10 2.732E+14 1.230E+12
                                    2.170E+12 7.234E+09 4.100E+14 1.356E+14 7.766E+12 5.650E+23
   12     3.600     4.000 6.955E+23 1.622E+21 2.291E+20 2.341E+16 2.221E+17 9.159E+16 1.180E+18 1.451E+23 2.083E+14
                                    1.069E+14 1.597E+13 2.115E+14 6.017E+13 3.054E+10 2.008E+10 2.344E+14 1.180E+12
                                    2.083E+12 6.942E+09 3.912E+14 1.073E+14 7.014E+12 5.422E+23
   13     4.000     4.400 6.668E+23 1.320E+21 2.197E+20 2.304E+16 2.131E+17 8.723E+16 1.132E+18 1.392E+23 1.997E+14
                                    9.321E+13 1.531E+13 1.792E+14 6.018E+13 2.930E+10 2.377E+10 2.007E+14 1.132E+12
                                    1.997E+12 6.658E+09 3.732E+14 8.725E+13 6.270E+12 5.200E+23
   14     4.400     4.800 6.389E+23 1.063E+21 2.106E+20 2.304E+16 2.042E+17 8.339E+16 1.085E+18 1.334E+23 1.915E+14
                                    8.206E+13 1.468E+13 1.497E+14 5.991E+13 2.808E+10 2.863E+10 1.714E+14 1.085E+12
                                    1.915E+12 6.382E+09 3.560E+14 7.311E+13 5.545E+12 4.985E+23
   15     4.800     5.000 3.098E+23 4.518E+20 1.021E+20 1.154E+16 9.905E+16 4.036E+16 5.262E+17 6.469E+22 9.286E+13
                                    3.732E+13 7.119E+12 6.538E+13 2.989E+13 1.362E+10 1.646E+10 7.616E+13 5.262E+11
                                    9.286E+11 3.095E+09 1.720E+14 3.202E+13 2.530E+12 2.417E+23
   16     5.000     5.200 3.032E+23 4.063E+20 9.997E+19 1.152E+16 9.695E+16 3.943E+16 5.150E+17 6.332E+22 9.089E+13
                                    3.506E+13 6.968E+12 5.979E+13 2.992E+13 1.333E+10 1.791E+10 7.036E+13 5.150E+11
                                    9.089E+11 3.030E+09 1.679E+14 2.942E+13 2.374E+12 2.366E+23
   17     5.200     5.600 5.861E+23 6.952E+20 1.933E+20 2.285E+16 1.874E+17 7.597E+16 9.957E+17 1.224E+23 1.757E+14
                                    6.396E+13 1.347E+13 1.047E+14 6.014E+13 2.577E+10 4.013E+10 1.248E+14 9.957E+11
                                    1.757E+12 5.857E+09 3.234E+14 5.209E+13 4.297E+12 4.574E+23
   18     5.600     6.000 5.610E+23 5.644E+20 1.850E+20 2.266E+16 1.794E+17 7.239E+16 9.532E+17 1.172E+23 1.682E+14
                                    5.664E+13 1.290E+13 8.763E+13 6.064E+13 2.467E+10 4.672E+10 1.064E+14 9.532E+11
                                    1.682E+12 5.607E+09 3.081E+14 4.430E+13 3.765E+12 4.379E+23
   19     6.000     6.400 5.367E+23 4.520E+20 1.771E+20 2.295E+16 1.717E+17 6.866E+16 9.120E+17 1.121E+23 1.610E+14
                                    5.051E+13 1.234E+13 7.256E+13 6.108E+13 2.362E+10 5.461E+10 9.046E+13 9.121E+11
                                    1.610E+12 5.365E+09 2.932E+14 3.831E+13 3.331E+12 4.190E+23
   20     6.400     6.800 5.131E+23 3.566E+20 1.693E+20 2.375E+16 1.642E+17 6.483E+16 8.721E+17 1.073E+23 1.540E+14
                                    4.537E+13 1.180E+13 5.937E+13 6.146E+13 2.261E+10 6.407E+10 7.660E+13 8.724E+11
                                    1.540E+12 5.132E+09 2.788E+14 3.371E+13 2.978E+12 4.008E+23
   21     6.800     7.000 2.484E+23 1.492E+20 8.199E+19 1.220E+16 7.951E+16 3.108E+16 4.221E+17 5.193E+22 7.454E+13
                                    2.095E+13 5.714E+12 2.553E+13 3.091E+13 1.095E+10 3.613E+10 3.382E+13 4.224E+11
                                    7.454E+11 2.485E+09 1.344E+14 1.532E+13 1.370E+12 1.940E+23
   22     7.000     7.200 2.428E+23 1.330E+20 8.015E+19 1.238E+16 7.772E+16 3.013E+16 4.126E+17 5.076E+22 7.287E+13
                                    1.988E+13 5.586E+12 2.302E+13 3.091E+13 1.072E+10 3.890E+10 3.118E+13 4.129E+11
                                    7.287E+11 2.431E+09 1.310E+14 1.440E+13 1.298E+12 1.897E+23
   23     7.200     7.600 4.685E+23 2.249E+20 1.547E+20 2.518E+16 1.500E+17 5.727E+16 7.960E+17 9.796E+22 1.406E+14
                                    3.679E+13 1.078E+13 3.919E+13 6.142E+13 2.074E+10 8.606E+10 5.533E+13 7.968E+11
                                    1.406E+12 4.706E+09 2.516E+14 2.628E+13 2.400E+12 3.661E+23
   24     7.600     8.000 4.474E+23 1.797E+20 1.477E+20 2.578E+16 1.432E+17 5.359E+16 7.597E+17 9.354E+22 1.343E+14
                                    3.320E+13 1.029E+13 3.161E+13 6.100E+13 1.988E+10 9.856E+10 4.721E+13 7.609E+11
                                    1.343E+12 4.511E+09 2.388E+14 2.329E+13 2.165E+12 3.496E+23
   25     8.000     8.400 4.270E+23 1.332E+20 1.410E+20 2.779E+16 1.366E+17 4.982E+16 7.246E+17 8.928E+22 1.281E+14
                                    3.023E+13 9.842E+12 2.491E+13 6.052E+13 1.910E+10 1.143E+11 4.022E+13 7.262E+11
                                    1.281E+12 4.348E+09 2.267E+14 2.069E+13 1.982E+12 3.336E+23
   26     8.400     8.800 4.072E+23 9.080E+19 1.345E+20 3.147E+16 1.303E+17 4.603E+16 6.905E+17 8.516E+22 1.222E+14
                                    2.776E+13 9.420E+12 1.913E+13 5.999E+13 1.840E+10 1.340E+11 3.421E+13 6.927E+11
                                    1.222E+12 4.212E+09 2.150E+14 1.842E+13 1.843E+12 3.182E+23
   27     8.800     9.000 1.967E+23 3.394E+19 6.496E+19 1.729E+16 6.291E+16 2.171E+16 3.334E+17 4.114E+22 5.906E+13
                                    1.304E+13 4.563E+12 7.840E+12 2.983E+13 8.955E+09 7.554E+10 1.516E+13 3.347E+11
                                    5.906E+11 2.059E+09 1.035E+14 8.452E+12 8.737E+11 1.537E+23
   28     9.000     9.200 1.921E+23 2.808E+19 6.342E+19 1.827E+16 6.137E+16 2.083E+16 3.252E+17 4.017E+22 5.766E+13
                                    1.251E+13 4.470E+12 6.817E+12 2.978E+13 8.786E+09 8.153E+10 1.399E+13 3.267E+11
                                    5.766E+11 2.047E+09 1.008E+14 7.990E+12 8.462E+11 1.501E+23
   29     9.200     9.600 3.699E+23 4.251E+19 1.221E+20 3.919E+16 1.180E+17 3.901E+16 6.255E+17 7.736E+22 1.110E+14
                                    2.356E+13 8.675E+12 1.093E+13 5.961E+13 1.705E+10 1.818E+11 2.482E+13 6.292E+11
                                    1.110E+12 4.113E+09 1.933E+14 1.471E+13 1.622E+12 2.891E+23
   30     9.600    10.000 3.523E+23 2.920E+19 1.163E+20 4.309E+16 1.122E+17 3.579E+16 5.945E+17 7.367E+22 1.058E+14
                                    2.176E+13 8.347E+12 8.128E+12 5.977E+13 1.641E+10 2.103E+11 2.118E+13 5.993E+11
                                    1.058E+12 4.146E+09 1.831E+14 1.319E+13 1.535E+12 2.753E+23
   31    10.000    10.400 3.353E+23 2.065E+19 1.107E+20 4.865E+16 1.064E+17 3.273E+16 5.646E+17 7.012E+22 1.006E+14
                                    2.020E+13 8.139E+12 6.036E+12 6.014E+13 1.578E+10 2.490E+11 1.827E+13 5.703E+11
                                    1.006E+12 4.431E+09 1.732E+14 1.204E+13 1.476E+12 2.620E+23
   32    10.400    10.800 3.189E+23 1.508E+19 1.053E+20 5.635E+16 1.007E+17 2.985E+16 5.358E+17 6.669E+22 9.573E+13
                                    1.884E+13 8.044E+12 4.477E+12 6.072E+13 1.516E+10 3.014E+11 1.596E+13 5.425E+11
                                    9.573E+11 5.016E+09 1.636E+14 1.120E+13 1.443E+12 2.492E+23
   33    10.800    11.000 1.537E+23 5.944E+18 5.077E+19 3.148E+16 4.837E+16 1.394E+16 2.578E+17 3.215E+22 4.615E+13
                                    8.951E+12 3.992E+12 1.786E+12 3.062E+13 7.366E+09 1.739E+11 7.215E+12 2.615E+11
                                    4.615E+11 2.755E+09 7.844E+13 5.307E+12 7.104E+11 1.202E+23
   34    11.000    12.000 7.020E+23 1.890E+19 2.318E+20 1.813E+17 2.190E+17 5.894E+16 1.172E+18 1.468E+23 2.107E+14
                                    4.002E+13 2.016E+13 5.936E+12 1.548E+14 3.419E+10 1.081E+12 3.145E+13 1.194E+12
                                    2.107E+12 1.721E+10 3.538E+14 2.396E+13 3.388E+12 5.486E+23
   35    12.000    13.000 6.001E+23 8.815E+18 1.982E+20 2.070E+17 1.845E+17 4.257E+16 9.931E+17 1.255E+23 1.799E+14
                                    3.360E+13 2.249E+13 2.742E+12 1.547E+14 3.039E+10 1.489E+12 3.204E+13 1.021E+12
                                    1.802E+12 2.552E+10 2.943E+14 2.068E+13 3.070E+12 4.690E+23
   36    13.000    13.400 2.148E+23 2.074E+18 7.093E+19 8.722E+16 6.531E+16 1.308E+16 3.528E+17 4.493E+22 6.410E+13
                                    1.204E+13 1.062E+13 5.505E+11 6.159E+13 1.135E+10 7.256E+11 1.528E+13 3.654E+11
                                    6.449E+11 1.355E+10 1.027E+14 7.574E+12 1.138E+12 1.679E+23
   37    13.400    14.000 2.980E+23 2.137E+18 9.842E+19 1.384E+17 8.988E+16 1.613E+16 4.866E+17 6.233E+22 8.834E+13
                                    1.677E+13 1.912E+13 4.609E+11 9.384E+13 1.642E+10 1.225E+12 2.642E+13 5.070E+11
                                    8.947E+11 2.511E+10 1.392E+14 1.069E+13 1.635E+12 2.329E+23
   38    14.000    15.000 4.383E+23 2.396E+18 1.447E+20 2.507E+17 1.303E+17 1.963E+16 7.086E+17 9.166E+22 1.268E+14
                                    2.497E+13 5.048E+13 3.234E+11 1.701E+14 2.706E+10 2.515E+12 5.645E+13 7.455E+11
                                    1.316E+12 5.885E+10 1.944E+14 1.588E+13 2.716E+12 3.425E+23
   39    15.000    15.900 3.397E+23 1.535E+18 1.122E+20 2.520E+17 9.906E+16 1.203E+16 5.421E+17 7.104E+22 9.393E+13
                                    1.954E+13 7.745E+13 1.113E+11 1.920E+14 2.509E+10 2.879E+12 6.562E+13 5.778E+11
                                    1.020E+12 7.873E+10 1.390E+14 1.224E+13 2.603E+12 2.655E+23
   40    15.900    16.000 3.490E+22 1.396E+17 1.153E+19 2.995E+16 1.006E+16 1.085E+15 5.529E+16 7.300E+21 9.386E+12
                                    2.008E+12 1.080E+13 7.654E+09 2.512E+13 2.853E+09 3.596E+11 8.124E+12 5.938E+10
                                    1.048E+11 1.073E+10 1.362E+13 1.251E+12 3.026E+11 2.728E+22
   41    16.000    17.000 3.202E+23 1.250E+18 1.057E+20 3.256E+17 9.072E+16 8.897E+15 5.024E+17 6.697E+22 8.336E+13
                                    1.783E+13 1.308E+14 5.011E+10 3.168E+14 2.966E+10 4.282E+12 8.724E+13 5.448E+11
                                    9.613E+11 1.363E+11 1.180E+14 1.135E+13 3.287E+12 2.503E+23
   42    17.000    18.000 2.738E+23 1.051E+18 9.040E+19 3.759E+17 7.473E+16 6.093E+15 4.211E+17 5.725E+22 6.742E+13
                                    1.391E+13 1.735E+14 2.391E+10 4.569E+14 3.183E+10 5.719E+12 9.501E+13 4.657E+11
                                    8.218E+11 2.116E+11 9.002E+13 9.481E+12 3.831E+12 2.139E+23
   43    18.000    18.400 9.801E+22 3.756E+17 3.236E+19 1.635E+17 2.591E+16 1.840E+15 1.484E+17 2.050E+22 2.361E+13
                                    4.520E+12 8.058E+13 5.935E+09 2.245E+14 1.335E+10 2.757E+12 3.881E+13 1.667E+11
                                    2.942E+11 1.169E+11 2.959E+13 3.348E+12 1.707E+12 7.659E+22
   44    18.400    19.000 1.360E+23 5.229E+17 4.491E+19 2.565E+17 3.498E+16 2.269E+15 2.031E+17 2.844E+22 3.304E+13
                                    5.721E+12 1.311E+14 6.363E+09 3.821E+14 2.081E+10 4.788E+12 5.769E+13 2.314E+11
                                    4.083E+11 2.277E+11 3.869E+13 4.626E+12 2.789E+12 1.063E+23
   45    19.000    20.000 2.001E+23 7.756E+17 6.606E+19 4.577E+17 4.899E+16 2.883E+15 2.908E+17 4.184E+22 4.991E+13
                                    7.159E+12 2.429E+14 6.297E+09 7.302E+14 3.766E+10 9.648E+12 9.299E+13 3.403E+11
                                    6.006E+11 6.267E+11 5.156E+13 6.825E+12 5.273E+12 1.563E+23
   46    20.000    20.900 1.549E+23 6.093E+17 5.113E+19 4.289E+17 3.546E+16 1.994E+15 2.159E+17 3.238E+22 4.098E+13
                                    4.576E+12 2.393E+14 3.385E+09 6.994E+14 4.113E+10 1.022E+13 7.798E+13 2.634E+11
                                    4.648E+11 9.306E+11 3.546E+13 5.482E+12 5.530E+12 1.210E+23
   47    20.900    21.000 1.588E+22 6.311E+16 5.245E+18 4.781E+16 3.500E+15 1.966E+14 2.159E+16 3.322E+21 4.384E+12
                                    4.281E+11 2.764E+13 3.086E+08 7.786E+13 5.282E+09 1.217E+12 8.269E+12 2.702E+10
                                    4.768E+10 1.259E+11 3.421E+12 5.828E+11 6.705E+11 1.241E+22
   48    21.000    22.000 1.454E+23 5.849E+17 4.803E+19 4.831E+17 3.091E+16 1.793E+15 1.913E+17 3.042E+22 4.240E+13
                                    3.602E+12 2.835E+14 2.650E+09 7.552E+14 6.063E+10 1.275E+13 7.787E+13 2.474E+11
                                    4.366E+11 1.358E+12 2.926E+13 5.600E+12 7.232E+12 1.137E+23
   49    22.000    23.000 1.240E+23 5.123E+17 4.093E+19 4.831E+17 2.493E+16 1.573E+15 1.528E+17 2.592E+22 4.119E+13
                                    2.699E+12 2.925E+14 2.054E+09 6.940E+14 7.720E+10 1.367E+13 6.965E+13 2.109E+11
                                    3.721E+11 1.583E+12 2.184E+13 5.277E+12 8.230E+12 9.687E+22
   50    23.000    23.400 4.431E+22 1.871E+17 1.463E+19 1.886E+17 8.638E+15 5.873E+14 5.214E+16 9.265E+21 1.669E+13
                                    9.022E+11 1.183E+14 6.912E+08 2.553E+14 3.664E+10 5.673E+12 2.574E+13 7.536E+10
                                    1.330E+11 7.283E+11 7.017E+12 2.042E+12 3.572E+12 3.462E+22
   51    23.400    24.000 6.143E+22 2.624E+17 2.029E+19 2.756E+17 1.170E+16 8.428E+14 7.007E+16 1.285E+22 2.590E+13
                                    1.199E+12 1.787E+14 9.125E+08 3.571E+14 6.283E+10 8.685E+12 3.658E+13 1.045E+11
                                    1.844E+11 1.226E+12 8.901E+12 3.002E+12 5.640E+12 4.801E+22
   52    24.000    25.000 9.026E+22 3.939E+17 2.981E+19 4.391E+17 1.641E+16 1.307E+15 9.818E+16 1.888E+22 5.029E+13
                                    1.649E+12 3.053E+14 1.206E+09 5.173E+14 1.448E+11 1.491E+13 5.659E+13 1.540E+11
                                    2.710E+11 2.710E+12 1.105E+13 4.896E+12 1.029E+13 7.054E+22
   53    25.000    26.000 7.713E+22 3.437E+17 2.547E+19 4.048E+17 1.329E+16 1.171E+15 8.038E+16 1.613E+22 5.987E+13
                                    1.318E+12 3.033E+14 9.008E+08 4.204E+14 1.987E+11 1.471E+13 5.167E+13 1.327E+11
                                    2.315E+11 3.566E+12 7.607E+12 4.685E+12 1.081E+13 6.028E+22
   54    26.000    27.500 9.527E+22 4.317E+17 3.146E+19 5.321E+17 1.562E+16 1.493E+15 9.608E+16 1.993E+22 1.010E+14
                                    1.528E+12 4.244E+14 9.735E+08 4.820E+14 3.718E+11 2.040E+13 6.850E+13 1.663E+11
                                    2.860E+11 6.437E+12 7.438E+12 6.435E+12 1.581E+13 7.446E+22
   55    27.500    28.600 5.701E+22 2.628E+17 1.883E+19 3.398E+17 8.841E+15 9.250E+14 5.539E+16 1.192E+22 8.418E+13
                                    8.530E+11 2.895E+14 4.925E+08 2.606E+14 3.441E+11 1.372E+13 4.546E+13 1.021E+11
                                    1.711E+11 5.744E+12 3.227E+12 4.286E+12 1.117E+13 4.456E+22
   56    28.600    30.000 5.983E+22 2.803E+17 1.976E+19 3.788E+17 8.766E+15 1.004E+15 5.594E+16 1.251E+22 1.222E+14
                                    8.355E+11 3.435E+14 4.264E+08 2.412E+14 5.526E+11 1.596E+13 5.468E+13 1.113E+11
                                    1.796E+11 8.903E+12 2.266E+12 4.947E+12 1.351E+13 4.676E+22
0TOTAL    0.000    30.000 2.127E+2 4.714E+22 7.008E+21 7.538E+18 6.575E+18 2.371E+18 3.524E+19 4.438E+24 6.615E+15
                                   2.941E+15 4.161E+15 4.689E+15 9.351E+15 2.915E+12 1.716E+14 7.614E+15 3.612E+13
                                   6.370E+13 3.503E+13 1.104E+16 7.197E+15 2.640E+14 1.658E+25
1 SUMMARY OF THE GEOMETRY CALCULATION

          MODEL   =     U. S. STANDARD,  1976   
          H1      =     0.000000 KM
          H2      =    30.000000 KM
          ANGLE   =     0.000000 DEG
          RANGE   =    30.000000 KM
          BETA    =     0.000000 DEG
          PHI     =   180.000000 DEG
          HMIN    =     0.000000 KM
          BENDING =     0.000000 DEG
          LEN     =          0
          AIRMAS  = 0.987805    RELATIVE TO A VERTICAL PATH , GROUND TO SPACE
0FINAL SET OF LAYERS FOR INPUT TO LBLRTM
 A LAYER AMOUNT MAY BE SET TO ZERO IF THE CUMULATIVE AMOUNT FOR THAT LAYER AND ABOVE IS LESS THAN 0.1 PERCENT
 OF THE TOTAL AMOUNT. THIS IS DONE ONLY FOR THE FOLLOWING CASES
     1.  IEMIT = 0 (TRANSMITTANCE)
     2.  IEMIT = 1 (RADIANCE) AND IPATH = 3 (PATH LOOKING UP)
 O2 IS NOT INCLUDED
 IF THE AMOUNTS FOR ALL THE MOLECULES BUT O2 ARE ZEROED, THE REMAINING LAYERS ARE ELIMINATED


            LAYER     I I
   L     BOUNDARIES   T P     PBAR     TBAR                          INTEGRATED AMOUNTS (MOLS CM-2)
        FROM     TO   Y T
        (KM)    (KM)  P H     (MB)      (K)         AIR            H2O            CO2             O3            N2O             CO            CH4             O2          OTHER   
                                                                    NO            SO2            NO2            NH3           HNO3             OH             HF            HCL   
                                                                   HBR             HI            CLO            OCS           H2CO           HOCL             N2   
0  1   0.000   0.400    3  989.30115  286.91   9.9860001E+23  7.3235139E+21  3.2738485E+20  2.6904837E+16  3.1746412E+17  1.4781319E+17  1.6865280E+18  2.0734380E+23  8.7925397E+21
                                                              2.9762264E+14  2.9232447E+14  2.2817729E+13  4.9603789E+14  5.1376185E+13  4.3651326E+10  9.9207434E+09  9.3722058E+14
                                                              1.6865285E+12  2.9762275E+12  9.9207434E+09  5.9326142E+14  2.0366756E+15  8.1455061E+12  7.7481059E+23
0  2   0.400   0.800    3  943.08356  284.31   9.6065332E+23  6.3958484E+21  3.1516785E+20  2.6924349E+16  3.0561726E+17  1.4038068E+17  1.6235901E+18  1.9960625E+23  8.4375840E+21
                                                              2.8651636E+14  2.7139412E+14  2.1966222E+13  4.7752718E+14  5.3058667E+13  4.2022330E+10  9.5505306E+09  8.0374407E+14
                                                              1.6235906E+12  2.8651634E+12  9.5505306E+09  5.6729552E+14  1.4192997E+15  8.9110243E+12  7.4589640E+23
0  3   0.800   1.200    3  898.89032  281.71   9.2520747E+23  5.5844686E+21  3.0373300E+20  2.6976045E+16  2.9452893E+17  1.3345271E+17  1.5646860E+18  1.9236400E+23  8.1192335E+21
                                                              2.7612103E+14  2.5151542E+14  2.1169281E+13  4.5846367E+14  5.4786188E+13  4.0497750E+10  9.2993720E+09  6.9002193E+14
                                                              1.5646837E+12  2.7612105E+12  9.2040264E+09  5.4304278E+14  9.8296635E+14  9.6699993E+12  7.1883402E+23
0  4   1.200   1.600    3  855.97083  279.11   8.8815402E+23  4.8203265E+21  2.9174188E+20  2.6957910E+16  2.8290096E+17  1.2637371E+17  1.5029120E+18  1.8476978E+23  7.8141417E+21
                                                              2.6521992E+14  2.2827016E+14  2.0333531E+13  4.2870646E+14  5.5963738E+13  3.8898876E+10  9.6040192E+09  5.9042486E+14
                                                              1.5029117E+12  2.6521997E+12  8.8406579E+09  5.1805674E+14  6.4559754E+14  9.9126493E+12  6.9045608E+23
0  5   1.600   2.000    3  814.96820  276.51   8.5356075E+23  4.1592434E+21  2.8052456E+20  2.6974398E+16  2.7202368E+17  1.1978666E+17  1.4451262E+18  1.7766549E+23  7.5464477E+21
                                                              2.5502226E+14  2.0676900E+14  1.9551691E+13  3.9973865E+14  5.7157446E+13  3.7403259E+10  1.0032000E+10  5.0574220E+14
                                                              1.4451242E+12  2.5502223E+12  8.5007319E+09  4.9474305E+14  4.2046797E+14  1.0082860E+13  6.6390718E+23
0  6   2.000   2.400    3  775.50073  273.91   8.1992657E+23  3.5149497E+21  2.6960470E+20  2.6576057E+16  2.6143475E+17  1.1347365E+17  1.3888723E+18  1.7074948E+23  7.3267441E+21
                                                              2.4509528E+14  1.8473783E+14  1.8790612E+13  3.6380004E+14  5.8130956E+13  3.5947287E+10  1.1050928E+10  4.3335750E+14
                                                              1.3888723E+12  2.4509502E+12  8.1698422E+09  4.7221713E+14  2.9499889E+14  9.8341099E+12  6.3806401E+23
0  7   2.400   2.800    3  737.51648  271.31   7.8724010E+23  2.9058148E+21  2.5897997E+20  2.5782336E+16  2.5113193E+17  1.0742647E+17  1.3341389E+18  1.6402052E+23  7.1343503E+21
                                                              2.3543618E+14  1.6271635E+14  1.8050099E+13  3.2291071E+14  5.8873990E+13  3.4530628E+10  1.2816279E+10  3.7147108E+14
                                                              1.3341378E+12  2.3543601E+12  7.8478720E+09  4.5046278E+14  2.2501775E+14  9.1937267E+12  6.1291872E+23
0  8   2.800   3.200    3  701.29150  268.71   7.5673242E+23  2.4034132E+21  2.4904547E+20  2.5034548E+16  2.4149893E+17  1.0185572E+17  1.2829612E+18  1.5772881E+23  6.9408036E+21
                                                              2.2640507E+14  1.4315780E+14  1.7357735E+13  2.8583987E+14  5.9639287E+13  3.3206120E+10  1.4885872E+10  3.1884609E+14
                                                              1.2829631E+12  2.2640531E+12  7.5468431E+09  4.3024996E+14  1.7256101E+14  8.5695754E+12  5.8940871E+23
0  9   3.200   3.600    3  666.24176  266.11   7.2505064E+23  1.9737429E+21  2.3872359E+20  2.4200418E+16  2.3148980E+17  9.6511978E+16  1.2297900E+18  1.5119162E+23  6.6656157E+21
                                                              2.1702149E+14  1.2380352E+14  1.6638313E+13  2.4626166E+14  5.9899648E+13  3.1829846E+10  1.7274692E+10  2.7319898E+14
                                                              1.2297885E+12  2.1702176E+12  7.2340531E+09  4.1002469E+14  1.3564783E+14  7.7655384E+12  5.6497938E+23
0 10   3.600   4.000    3  632.84338  263.51   6.9550055E+23  1.6215137E+21  2.2907897E+20  2.3414652E+16  2.2213731E+17  9.1588271E+16  1.1801034E+18  1.4508334E+23  6.4116847E+21
                                                              2.0825364E+14  1.0692086E+14  1.5966101E+13  2.1150947E+14  6.0174434E+13  3.0543854E+10  2.0076329E+10  2.3440131E+14
                                                              1.1801035E+12  2.0825376E+12  6.9417866E+09  3.9124125E+14  1.0728604E+14  7.0143857E+12  5.4215341E+23
0 11   4.000   4.400    3  600.74927  260.91   6.6680159E+23  1.3195786E+21  2.1971293E+20  2.3035849E+16  2.1305507E+17  8.7233225E+16  1.1318553E+18  1.3915153E+23  6.1217250E+21
                                                              1.9973918E+14  9.3209867E+13  1.5313333E+13  1.7919949E+14  6.0179899E+13  2.9295081E+10  2.3767310E+10  2.0066507E+14
                                                              1.1318536E+12  1.9973896E+12  6.6579702E+09  3.7324809E+14  8.7252445E+13  6.2703261E+12  5.1998759E+23
0 12   4.400   4.800    3  569.91516  258.31   6.3894405E+23  1.0630197E+21  2.1062195E+20  2.3042364E+16  2.0423947E+17  8.3393868E+16  1.0850227E+18  1.3339399E+23  5.8028701E+21
                                                              1.9147444E+14  8.2058135E+13  1.4679711E+13  1.4965112E+14  5.9914341E+13  2.8082950E+10  2.8632607E+10  1.7138102E+14
                                                              1.0850219E+12  1.9147458E+12  6.3824809E+09  3.5601487E+14  7.3109596E+13  5.5449910E+12  4.9847213E+23
0 13   4.800   5.200    3  540.57709  255.71   6.1295497E+23  8.5816703E+20  2.0211921E+20  2.3056662E+16  1.9599468E+17  7.9788853E+16  1.0412207E+18  1.2800886E+23  5.5360408E+21
                                                              1.8374487E+14  7.2379150E+13  1.4087107E+13  1.2516798E+14  5.9817360E+13  2.6949214E+10  3.4379432E+10  1.4652278E+14
                                                              1.0412207E+12  1.8374475E+12  6.1248220E+09  3.3993170E+14  6.1441990E+13  4.9041281E+12  4.7834843E+23
0 14   5.200   5.600    3  512.23163  253.11   5.8606538E+23  6.9516431E+20  1.9328612E+20  2.2852978E+16  1.8742904E+17  7.5967466E+16  9.9571656E+17  1.2241456E+23  5.3173460E+21
                                                              1.7571466E+14  6.3964185E+13  1.3471464E+13  1.0465046E+14  6.0143341E+13  2.5771502E+10  4.0133960E+10  1.2482202E+14
                                                              9.9571709E+11  1.7571456E+12  5.8571581E+09  3.2343218E+14  5.2090160E+13  4.2969651E+12  4.5744376E+23
0 15   5.600   6.000    3  485.28656  250.51   5.6099957E+23  5.6440064E+20  1.8503234E+20  2.2655117E+16  1.7942516E+17  7.2387387E+16  9.5319666E+17  1.1718712E+23  5.1518297E+21
                                                              1.6821105E+14  5.6639386E+13  1.2896184E+13  8.7634890E+13  6.0640312E+13  2.4670968E+10  4.6718874E+10  1.0644368E+14
                                                              9.5319589E+11  1.6821126E+12  5.6070385E+09  3.0805280E+14  4.4302852E+13  3.7650385E+12  4.3790996E+23
0 16   6.000   6.400    3  459.44778  247.91   5.3669350E+23  4.5197760E+20  1.7705513E+20  2.2949509E+16  1.7168991E+17  6.8663234E+16  9.1199500E+17  1.1213492E+23  4.8978267E+21
                                                              1.6095908E+14  5.0507737E+13  1.2340204E+13  7.2563984E+13  6.1079221E+13  2.3617991E+10  5.4605111E+10  9.0459980E+13
                                                              9.1210147E+11  1.6095910E+12  5.3653038E+09  2.9316219E+14  3.8310718E+13  3.3313063E+12  4.1903055E+23
0 17   6.400   6.800    3  434.67453  245.31   5.1313773E+23  3.5662851E+20  1.6934831E+20  2.3753308E+16  1.6421673E+17  6.4830152E+16  8.7209400E+17  1.0725403E+23  4.5652089E+21
                                                              1.5395320E+14  4.5370529E+13  1.1803061E+13  5.9368377E+13  6.1458319E+13  2.2610495E+10  6.4068620E+10  7.6597999E+13
                                                              8.7240108E+11  1.5395302E+12  5.1317673E+09  2.7875688E+14  3.3711536E+13  2.9776431E+12  4.0079140E+23
0 18   6.800   7.200    3  411.16086  242.71   4.9117119E+23  2.8215977E+20  1.6214225E+20  2.4582353E+16  1.5722898E+17  6.1217591E+16  8.3476270E+17  1.0269005E+23  4.2989561E+21
                                                              1.4740194E+14  4.0829314E+13  1.1300831E+13  4.8551573E+13  6.1815099E+13  2.1675258E+10  7.5024884E+10  6.4997342E+13
                                                              8.3527827E+11  1.4740199E+12  4.9158118E+09  2.6532724E+14  2.9725506E+13  2.6676948E+12  3.8373681E+23
0 19   7.200   7.600    3  388.46005  240.11   4.6850630E+23  2.2487252E+20  1.5467477E+20  2.5176853E+16  1.4998758E+17  5.7273595E+16  7.9596705E+17  9.7960741E+22  4.1012300E+21
                                                              1.4061346E+14  3.6785598E+13  1.0780367E+13  3.9190994E+13  6.1418024E+13  2.0744679E+10  8.6064022E+10  5.5331367E+13
                                                              7.9680963E+11  1.4061354E+12  4.7057377E+09  2.5160381E+14  2.6283851E+13  2.4004809E+12  3.6606375E+23
0 20   7.600   8.000    3  366.93665  237.51   4.4739216E+23  1.7974867E+20  1.4770081E+20  2.5783279E+16  1.4322498E+17  5.3586860E+16  7.5972041E+17  9.3543772E+22  3.9614383E+21
                                                              1.3427347E+14  3.3203530E+13  1.0294302E+13  3.1613801E+13  6.0998107E+13  1.9881038E+10  9.8563252E+10  4.7207256E+13
                                                              7.6088272E+11  1.3427349E+12  4.5114844E+09  2.3882919E+14  2.3290156E+13  2.1652144E+12  3.4955852E+23
0 21   8.000   8.400    3  346.35385  234.91   4.2696510E+23  1.3321426E+20  1.4096300E+20  2.7786473E+16  1.3664895E+17  4.9824442E+16  7.2455287E+17  8.9276576E+22  3.8008219E+21
                                                              1.2814825E+14  3.0228093E+13  9.8416019E+12  2.4907990E+13  6.0520674E+13  1.9101045E+10  1.1426170E+11  4.0217247E+13
                                                              7.2617322E+11  1.2814815E+12  4.3477412E+09  2.2665329E+14  2.0688381E+13  1.9824983E+12  3.3361257E+23
0 22   8.400   8.800    3  326.67523  232.31   4.0721404E+23  9.0802253E+19  1.3445688E+20  3.1473701E+16  1.3026054E+17  4.6029920E+16  6.9045887E+17  8.5156070E+22  3.6172192E+21
                                                              1.2223360E+14  2.7763631E+13  9.4199276E+12  1.9130359E+13  5.9986349E+13  1.8398290E+10  1.3400602E+11  3.4209519E+13
                                                              6.9265713E+11  1.2223361E+12  4.2120105E+09  2.1504980E+14  1.8424447E+13  1.8434304E+12  3.1821459E+23
0 23   8.800   9.200    3  308.05447  229.71   3.8880847E+23  6.2022035E+19  1.2838329E+20  3.5556243E+16  1.2427756E+17  4.2539813E+16  6.5857063E+17  8.1309447E+22  3.4672313E+21
                                                              1.1671217E+14  2.5549376E+13  9.0331247E+12  1.4656536E+13  5.9615417E+13  1.7740972E+10  1.5707105E+11  2.9144723E+13
                                                              6.6136834E+11  1.1671201E+12  4.1056589E+09  2.0424893E+14  1.6441836E+13  1.7198924E+12  3.0384054E+23
0 24   9.200   9.600    3  290.13547  227.15   3.6987538E+23  4.2509820E+19  1.2214347E+20  3.9187419E+16  1.1802080E+17  3.9011884E+16  6.2545149E+17  7.7357556E+22  3.2793411E+21
                                                              1.1103957E+14  2.3557558E+13  8.6748839E+12  1.0932141E+13  5.9613198E+13  1.7053641E+10  1.8178269E+11  2.4822776E+13
                                                              6.2922437E+11  1.1103947E+12  4.1128276E+09  1.9328319E+14  1.4712233E+13  1.6219128E+12  2.8907302E+23
0 25   9.600  10.000    3  273.19861  224.59   3.5225405E+23  2.9204056E+19  1.1632593E+20  4.3087301E+16  1.1217419E+17  3.5787791E+16  5.9453514E+17  7.3673139E+22  3.1297856E+21
                                                              1.0575088E+14  2.1763912E+13  8.3465355E+12  8.1278114E+12  5.9771768E+13  1.6411045E+10  2.1029665E+11  2.1175592E+13
                                                              5.9925535E+11  1.0575087E+12  4.1455805E+09  1.8309170E+14  1.3192368E+13  1.5348092E+12  2.7530481E+23
0 26  10.000  10.400    3  257.02994  222.01   3.3525257E+23  2.0648276E+19  1.1071390E+20  4.8651135E+16  1.0639372E+17  3.2732158E+16  5.6464506E+17  7.0118844E+22  2.9787168E+21
                                                              1.0064909E+14  2.0201775E+13  8.1389095E+12  6.0358708E+12  6.0138963E+13  1.5780364E+10  2.4899487E+11  1.8273236E+13
                                                              5.7034447E+11  1.0064902E+12  4.4311654E+09  1.7318469E+14  1.2042677E+13  1.4761629E+12  2.6202290E+23
0 27  10.400  10.800    3  241.59918  219.41   3.1886037E+23  1.5077555E+19  1.0530338E+20  5.6353574E+16  1.0069583E+17  2.9845356E+16  5.3577411E+17  6.6692141E+22  2.8292694E+21
                                                              9.5730383E+13  1.8842540E+13  8.0444680E+12  4.4766389E+12  6.0717806E+13  1.5161939E+10  3.0135386E+11  1.5960302E+13
                                                              5.4247175E+11  9.5730349E+11  5.0162647E+09  1.6357032E+14  1.1197418E+13  1.4433116E+12  2.4921785E+23
0 28  10.800  13.400    3  194.95801  216.79   1.6705566E+24  3.5737629E+19  5.5167667E+20  5.0700278E+17  5.1717804E+17  1.2852126E+17  2.7758317E+18  3.4939520E+23  1.4935378E+22
                                                              5.0084577E+14  9.4605471E+13  5.7264942E+13  1.1015012E+13  4.0175312E+14  8.3295126E+10  3.4699849E+12  8.5986134E+13
                                                              2.8419705E+12  5.0152420E+12  5.9030651E+10  8.2921477E+14  5.7514540E+13  8.3056908E+12  1.3056346E+24
0 29  13.400  15.900    3  130.42139  216.70   1.0760065E+24  6.0675900E+18  3.5530379E+20  6.4105046E+17  3.1928594E+17  4.7778835E+16  1.7373222E+18  2.2502578E+23  9.7309457E+21
                                                              3.0905753E+14  6.1287095E+13  1.4705002E+14  8.9560901E+11  4.5595611E+14  6.8569088E+10  6.6190458E+12  1.4849646E+14
                                                              1.8303531E+12  3.2300351E+12  1.6269364E+11  4.7254780E+14  3.8805722E+13  6.9531819E+12  8.4088568E+23
0 30  15.900  18.400    3   88.10098  216.70   7.2689215E+23  2.8165997E+18  2.4003414E+20  8.9494185E+17  2.0141775E+17  1.7914826E+16  1.1271957E+18  1.5202164E+23  6.5446310E+21
                                                              1.8377370E+14  3.8261272E+13  3.9574668E+14  8.7608025E+10  1.0234029E+15  7.7690438E+10  1.3118894E+13  2.2917883E+14
                                                              1.2365394E+12  2.1821286E+12  4.7546778E+11  2.5120547E+14  2.5426410E+13  9.1272616E+12  5.6808081E+23
0 31  18.400  20.900    3   59.54031  216.82   4.9093221E+23  1.9078819E+18  1.6210520E+20  1.1432015E+18  1.1943214E+17  7.1456713E+15  7.0978939E+17  1.0266663E+23  4.4506013E+21
                                                              1.2393318E+14  1.7455217E+13  6.1334395E+14  1.6045799E+10  1.8116700E+15  9.9603366E+10  2.4655413E+13  2.2866114E+14
                                                              8.3508730E+11  1.4736834E+12  1.7849422E+12  1.2571393E+14  1.6933596E+13  1.3591835E+13  3.8364897E+23
0 32  20.900  23.400    3   40.31368  218.67   3.2958877E+23  1.3473465E+18  1.0883321E+20  1.2026864E+18  6.7973338E+16  4.1498860E+15  4.1782160E+17  6.8927705E+22  2.9773117E+21
                                                              1.0467069E+14  7.6317264E+12  7.2195501E+14  5.7037537E+09  1.7823481E+15  1.7974714E+11  3.3318343E+13  1.8152852E+14
                                                              5.6065576E+11  9.8939267E+11  3.7951510E+12  6.1537738E+13  1.3501578E+13  1.9704838E+13  2.5757189E+23
0 33  23.400  26.000    3   27.24163  221.20   2.2881965E+23  1.0000462E+18  7.5561421E+19  1.1195346E+18  4.1392945E+16  3.3207619E+15  2.4862720E+17  4.7855560E+22  2.0573884E+21
                                                              1.3606596E+14  4.1658134E+12  7.8719194E+14  3.0190313E+09  1.2948418E+15  4.0634404E+11  3.8301076E+13  1.4484187E+14
                                                              3.9121057E+11  6.8692201E+11  7.5020779E+12  2.7554333E+13  1.2583029E+13  2.6741918E+13  1.7882872E+23
0 34  26.000  28.600    3   18.33134  223.73   1.5228409E+23  6.9449738E+17  5.0289199E+19  8.7196371E+17  2.4465877E+16  2.4182577E+15  1.5147173E+17  3.1849821E+22  1.3644646E+21
                                                              1.8519877E+14  2.3812815E+12  7.1385591E+14  1.4659990E+09  7.4257736E+14  7.1593912E+11  3.4123234E+13  1.1396219E+14
                                                              2.6837149E+11  4.5717442E+11  1.2180796E+13  1.0665337E+13  1.0720864E+13  2.6974435E+13  1.1901776E+23
0 35  28.600  30.000    3   13.37327  225.77   5.9831821E+22  2.8025259E+17  1.9756982E+19  3.7880560E+17  8.7657244E+15  1.0039082E+15  5.5941335E+16  1.2512753E+22  5.4039593E+20
                                                              1.2217024E+14  8.3550267E+11  3.4353128E+14  4.2643574E+08  2.4121523E+14  5.5255931E+11  1.5962844E+13  5.4680621E+13
                                                              1.1126279E+11  1.7960890E+11  8.9032344E+12  2.2655955E+12  4.9468230E+12  1.3513352E+13  4.6758191E+22



1   ------------------------------------
            LAYER     I I
   L     BOUNDARIES   T P     PBAR     TBAR                        MOLECULAR MIXING RATIOS BY LAYER
        FROM     TO   Y T
        (KM)    (KM)  P H     (MB)      (K)         AIR            H2O            CO2             O3            N2O             CO            CH4             O2          OTHER   
                                                                    NO            SO2            NO2            NH3           HNO3             OH             HF            HCL   
                                                                   HBR             HI            CLO            OCS           H2CO           HOCL             N2   
0  1   0.000   0.400    3  989.30115  286.91   9.9860001E+23  7.3879627E-03  3.3026593E-04  2.7141606E-08  3.2025790E-07  1.4911399E-07  1.7013699E-06  2.0916848E-01  8.7925397E+21
                                                              3.0024180E-10  2.9489700E-10  2.3018532E-11  5.0040316E-10  5.1828309E-11  4.4035468E-14  1.0008048E-14  9.4546837E-10
                                                              1.7013704E-12  3.0024191E-12  1.0008048E-14  5.9848226E-10  2.0545989E-09  8.2171891E-12  7.8162915E-01
0  2   0.400   0.800    3  943.08356  284.31   9.6065332E+23  6.7024347E-03  3.3027548E-04  2.8214972E-08  3.2026708E-07  1.4710986E-07  1.7014172E-06  2.0917442E-01  8.4375840E+21
                                                              3.0025057E-10  2.8440345E-10  2.3019177E-11  5.0041754E-10  5.5602044E-11  4.4036677E-14  1.0008337E-14  8.4227170E-10
                                                              1.7014177E-12  3.0025056E-12  1.0008337E-14  5.9448896E-10  1.4873341E-09  9.3381761E-12  7.8165108E-01
0  3   0.800   1.200    3  898.89032  281.71   9.2520747E+23  6.0725631E-03  3.3027990E-04  2.9333808E-08  3.2027137E-07  1.4511676E-07  1.7014429E-06  2.0917702E-01  8.1192335E+21
                                                              3.0025460E-10  2.7349839E-10  2.3019522E-11  4.9853438E-10  5.9574616E-11  4.4037338E-14  1.0112157E-14  7.5033130E-10
                                                              1.7014403E-12  3.0025461E-12  1.0008478E-14  5.9050587E-10  1.0688797E-09  1.0515177E-11  7.8166163E-01
0  4   1.200   1.600    3  855.97083  279.11   8.8815402E+23  5.4569710E-03  3.3027367E-04  3.0518375E-08  3.2026509E-07  1.4306451E-07  1.7014090E-06  2.0917323E-01  7.8141417E+21
                                                              3.0024883E-10  2.5841893E-10  2.3019081E-11  4.8532783E-10  6.3355148E-11  4.4036443E-14  1.0872470E-14  6.6840522E-10
                                                              1.7014087E-12  3.0024889E-12  1.0008287E-14  5.8647909E-10  7.3086481E-10  1.1221862E-11  7.8164804E-01
0  5   1.600   2.000    3  814.96820  276.51   8.5356075E+23  4.8966752E-03  3.3026142E-04  3.1756947E-08  3.2025335E-07  1.4102478E-07  1.7013464E-06  2.0916550E-01  7.5464477E+21
                                                              3.0023758E-10  2.4342905E-10  2.3018197E-11  4.7061210E-10  6.7291436E-11  4.4034837E-14  1.1810669E-14  5.9541005E-10
                                                              1.7013440E-12  3.0023755E-12  1.0007908E-14  5.8246075E-10  4.9501675E-10  1.1870547E-11  7.8161758E-01
0  6   2.000   2.400    3  775.50073  273.91   8.1992657E+23  4.3053646E-03  3.3023136E-04  3.2552279E-08  3.2022419E-07  1.3899074E-07  1.7011913E-06  2.0914631E-01  7.3267441E+21
                                                              3.0021044E-10  2.2628027E-10  2.3016101E-11  4.4560861E-10  7.1203002E-11  4.4030836E-14  1.3535976E-14  5.3080762E-10
                                                              1.7011913E-12  3.0021012E-12  1.0007014E-14  5.7840571E-10  3.6133599E-10  1.2045530E-11  7.8154695E-01
0  7   2.400   2.800    3  737.51648  271.31   7.8724010E+23  3.7048166E-03  3.3019081E-04  3.2871618E-08  3.2018480E-07  1.3696516E-07  1.7009825E-06  2.0912068E-01  7.1343503E+21
                                                              3.0017325E-10  2.0745790E-10  2.3013274E-11  4.1170034E-10  7.5062366E-11  4.4025395E-14  1.6340326E-14  4.7361320E-10
                                                              1.7009812E-12  3.0017304E-12  1.0005774E-14  5.7432498E-10  2.8689010E-10  1.1721694E-11  7.8145087E-01
0  8   2.800   3.200    3  701.29150  268.71   7.5673242E+23  3.1861605E-03  3.3015496E-04  3.3187838E-08  3.2015066E-07  1.3502823E-07  1.7007978E-06  2.0909816E-01  6.9408036E+21
                                                              3.0014102E-10  1.8978165E-10  2.3010828E-11  3.7893264E-10  7.9062701E-11  4.4020739E-14  1.9733925E-14  4.2268836E-10
                                                              1.7008005E-12  3.0014131E-12  1.0004710E-14  5.7037441E-10  2.2876094E-10  1.1360527E-11  7.8136820E-01
0  9   3.200   3.600    3  666.24176  266.11   7.2505064E+23  2.7296445E-03  3.3014966E-04  3.3468663E-08  3.2014549E-07  1.3347402E-07  1.7007734E-06  2.0909479E-01  6.6656157E+21
                                                              3.0013611E-10  1.7121764E-10  2.3010434E-11  3.4057465E-10  8.2839943E-11  4.4020001E-14  2.3890530E-14  3.7782838E-10
                                                              1.7007714E-12  3.0013648E-12  1.0004542E-14  5.6705540E-10  1.8759808E-10  1.0739574E-11  7.8135449E-01
0 10   3.600   4.000    3  632.84338  263.51   6.9550055E+23  2.3368825E-03  3.3014253E-04  3.3744573E-08  3.2013838E-07  1.3199458E-07  1.7007336E-06  2.0909025E-01  6.4116847E+21
                                                              3.0012959E-10  1.5409150E-10  2.3009919E-11  3.0482183E-10  8.6721789E-11  4.4018988E-14  2.8933470E-14  3.3781294E-10
                                                              1.7007337E-12  3.0012978E-12  1.0004318E-14  5.6384647E-10  1.5461779E-10  1.0108946E-11  7.8133708E-01
0 11   4.000   4.400    3  600.74927  260.91   6.6680159E+23  1.9828915E-03  3.3015606E-04  3.4615283E-08  3.2015151E-07  1.3108277E-07  1.7008052E-06  2.0909886E-01  6.1217250E+21
                                                              3.0014213E-10  1.4006370E-10  2.3010890E-11  2.6927774E-10  9.0430545E-11  4.4020848E-14  3.5714429E-14  3.0153344E-10
                                                              1.7008028E-12  3.0014179E-12  1.0004734E-14  5.6086880E-10  1.3111165E-10  9.4222321E-12  7.8136986E-01
0 12   4.400   4.800    3  569.91516  258.31   6.3894405E+23  1.6664859E-03  3.3019006E-04  3.6123296E-08  3.2018428E-07  1.3073578E-07  1.7009800E-06  2.0912050E-01  5.8028701E+21
                                                              3.0017266E-10  1.2864176E-10  2.3013244E-11  2.3460664E-10  9.3927144E-11  4.4025374E-14  4.4887068E-14  2.6867242E-10
                                                              1.7009786E-12  3.0017289E-12  1.0005755E-14  5.5812116E-10  1.1461322E-10  8.6928303E-12  7.8145003E-01
0 13   4.800   5.200    3  540.57709  255.71   6.1295497E+23  1.4020121E-03  3.3020793E-04  3.7668329E-08  3.2020213E-07  1.3035333E-07  1.7010722E-06  2.0913173E-01  5.5360408E+21
                                                              3.0018926E-10  1.1824788E-10  2.3014510E-11  2.0449051E-10  9.7725335E-11  4.4027702E-14  5.6166663E-14  2.3937846E-10
                                                              1.7010720E-12  3.0018906E-12  1.0006297E-14  5.5535615E-10  1.0037954E-10  8.0120147E-12  7.8149152E-01
0 14   5.200   5.600    3  512.23163  253.11   5.8606538E+23  1.1875634E-03  3.3019466E-04  3.9040209E-08  3.2018889E-07  1.2977678E-07  1.7010030E-06  2.0912330E-01  5.3173460E+21
                                                              3.0017697E-10  1.0927133E-10  2.3013579E-11  1.7877654E-10  1.0274410E-10  4.4025984E-14  6.8561666E-14  2.1323601E-10
                                                              1.7010039E-12  3.0017679E-12  1.0005904E-14  5.5252580E-10  8.8986693E-11  7.3405934E-12  7.8146058E-01
0 15   5.600   6.000    3  485.28656  250.51   5.6099957E+23  1.0070757E-03  3.3015833E-04  4.0424151E-08  3.2015328E-07  1.2916281E-07  1.7008152E-06  2.0910022E-01  5.1518297E+21
                                                              3.0014363E-10  1.0106323E-10  2.3011017E-11  1.5636936E-10  1.0820218E-10  4.4021092E-14  8.3361777E-14  1.8993039E-10
                                                              1.7008138E-12  3.0014402E-12  1.0004794E-14  5.4966715E-10  7.9050808E-11  6.7180623E-12  7.8137487E-01
0 16   6.000   6.400    3  459.44778  247.91   5.3669350E+23  8.4286201E-04  3.3017795E-04  4.2796966E-08  3.2017272E-07  1.2804536E-07  1.7007169E-06  2.0911272E-01  4.8978267E+21
                                                              3.0016153E-10  9.4188414E-11  2.3012401E-11  1.3531959E-10  1.1390244E-10  4.4043569E-14  1.0182933E-13  1.6869260E-10
                                                              1.7009155E-12  3.0016159E-12  1.0005387E-14  5.4669802E-10  7.1443032E-11  6.2123245E-12  7.8142130E-01
0 17   6.400   6.800    3  434.67453  245.31   5.1313773E+23  6.9547904E-04  3.3025458E-04  4.6322508E-08  3.2024724E-07  1.2642850E-07  1.7007139E-06  2.0916142E-01  4.5652089E+21
                                                              3.0023181E-10  8.8479328E-11  2.3017737E-11  1.1577723E-10  1.1985293E-10  4.4093855E-14  1.2494340E-13  1.4937758E-10
                                                              1.7013128E-12  3.0023145E-12  1.0007715E-14  5.4361771E-10  6.5742543E-11  5.8068502E-12  7.8160328E-01
0 18   6.800   7.200    3  411.16086  242.71   4.9117119E+23  5.7479338E-04  3.3030327E-04  5.0077208E-08  3.2029433E-07  1.2470760E-07  1.7005119E-06  2.0919198E-01  4.2989561E+21
                                                              3.0027547E-10  8.3174218E-11  2.3021151E-11  9.8905391E-11  1.2592478E-10  4.4155106E-14  1.5283471E-13  1.3240740E-10
                                                              1.7015623E-12  3.0027556E-12  1.0014100E-14  5.4050348E-10  6.0554430E-11  5.4344151E-12  7.8171802E-01
0 19   7.200   7.600    3  388.46005  240.11   4.6850630E+23  4.8020811E-04  3.3030304E-04  5.3764367E-08  3.2029368E-07  1.2230593E-07  1.6997623E-06  2.0919204E-01  4.1012300E+21
                                                              3.0027555E-10  7.8554468E-11  2.3021130E-11  8.3691117E-11  1.3115622E-10  4.4299600E-14  1.8378697E-13  1.1815837E-10
                                                              1.7015615E-12  3.0027573E-12  1.0048952E-14  5.3729193E-10  5.6128324E-11  5.1261504E-12  7.8171742E-01
0 20   7.600   8.000    3  366.93665  237.51   4.4739216E+23  4.0193132E-04  3.3026992E-04  5.7653317E-08  3.2026162E-07  1.1982418E-07  1.6987909E-06  2.0917079E-01  3.9614383E+21
                                                              3.0024541E-10  7.4245547E-11  2.3018819E-11  7.0690793E-11  1.3639627E-10  4.4455471E-14  2.2039472E-13  1.0555892E-10
                                                              1.7013900E-12  3.0024544E-12  1.0088012E-14  5.3403970E-10  5.2078512E-11  4.8415794E-12  7.8163868E-01
0 21   8.000   8.400    3  346.35385  234.91   4.2696510E+23  3.1210008E-04  3.3025417E-04  6.5099343E-08  3.2014702E-07  1.1673084E-07  1.6975135E-06  2.0916100E-01  3.8008219E+21
                                                              3.0023123E-10  7.0819677E-11  2.3057327E-11  5.8355508E-11  1.4179043E-10  4.4750746E-14  2.6769721E-13  9.4222692E-11
                                                              1.7013098E-12  3.0023098E-12  1.0186074E-14  5.3101307E-10  4.8469628E-11  4.6446822E-12  7.8160185E-01
0 22   8.400   8.800    3  326.67523  232.31   4.0721404E+23  2.2303381E-04  3.3026087E-04  7.7307547E-08  3.1995359E-07  1.1306139E-07  1.6959456E-06  2.0916533E-01  3.6172192E+21
                                                              3.0023733E-10  6.8194658E-11  2.3137778E-11  4.6989111E-11  1.4734199E-10  4.5190959E-14  3.2915345E-13  8.4027431E-11
                                                              1.7013451E-12  3.0023735E-12  1.0345787E-14  5.2821791E-10  4.5255209E-11  4.5279418E-12  7.8161734E-01
0 23   8.800   9.200    3  308.05447  229.71   3.8880847E+23  1.5954366E-04  3.3024940E-04  9.1463839E-08  3.1968796E-07  1.0942816E-07  1.6940877E-06  2.0915803E-01  3.4672313E+21
                                                              3.0022695E-10  6.5722462E-11  2.3236545E-11  3.7702043E-11  1.5335294E-10  4.5636356E-14  4.0404496E-13  7.4971029E-11
                                                              1.7012845E-12  3.0022655E-12  1.0561276E-14  5.2540394E-10  4.2294498E-11  4.4242010E-12  7.8159046E-01
0 24   9.200   9.600    3  290.13547  227.15   3.6987538E+23  1.1494333E-04  3.3026669E-04  1.0595981E-07  3.1911927E-07  1.0548517E-07  1.6911733E-06  2.0916896E-01  3.2793411E+21
                                                              3.0024255E-10  6.3697853E-11  2.3456228E-11  2.9559681E-11  1.6118956E-10  4.6111752E-14  4.9152658E-13  6.7118901E-11
                                                              1.7013749E-12  3.0024230E-12  1.1120773E-14  5.2262311E-10  3.9780762E-11  4.3855293E-12  7.8163153E-01
0 25   9.600  10.000    3  273.19861  224.59   3.5225405E+23  8.2913102E-05  3.3026040E-04  1.2232896E-07  3.1847324E-07  1.0160495E-07  1.6879420E-06  2.0916507E-01  3.1297856E+21
                                                              3.0023684E-10  6.1789823E-11  2.3696611E-11  2.3075632E-11  1.6969776E-10  4.6592521E-14  5.9705225E-13  6.0119527E-11
                                                              1.7013431E-12  3.0023681E-12  1.1769699E-14  5.1981480E-10  3.7454394E-11  4.3574697E-12  7.8161663E-01
0 26  10.000  10.400    3  257.02994  222.01   3.3525257E+23  6.1594001E-05  3.3026061E-04  1.4512679E-07  3.1737346E-07  9.7640338E-08  1.6843416E-06  2.0916517E-01  2.9787168E+21
                                                              3.0023720E-10  6.0262087E-11  2.4278444E-11  1.8005059E-11  1.7939510E-10  4.7072975E-14  7.4275406E-13  5.4509237E-11
                                                              1.7013430E-12  3.0023698E-12  1.3218208E-14  5.1661159E-10  3.5923420E-11  4.4034078E-12  7.8161681E-01
0 27  10.400  10.800    3  241.59918  219.41   3.1886037E+23  4.7287998E-05  3.3026483E-04  1.7674270E-07  3.1581411E-07  9.3604513E-08  1.6803577E-06  2.0916773E-01  2.8292694E+21
                                                              3.0024089E-10  5.9096186E-11  2.5230006E-11  1.4040161E-11  1.9043031E-10  4.7552653E-14  9.4514143E-13  5.0056573E-11
                                                              1.7013637E-12  3.0024078E-12  1.5732599E-14  5.1300847E-10  3.5118658E-11  4.5266837E-12  7.8162634E-01
0 28  10.800  13.400    3  194.95801  216.79   1.6705566E+24  2.1393107E-05  3.3024233E-04  3.0349986E-07  3.0959092E-07  7.6934853E-08  1.6616566E-06  2.0915347E-01  1.4935378E+22
                                                              2.9981417E-10  5.6632324E-11  3.4279697E-11  6.5937594E-12  2.4049573E-10  4.9861774E-14  2.0771876E-12  5.1472653E-11
                                                              1.7012483E-12  3.0022029E-12  3.5336676E-14  4.9638099E-10  3.4429109E-11  4.9719174E-12  7.8157341E-01
0 29  13.400  15.900    3  130.42139  216.70   1.0760065E+24  5.6390218E-06  3.3020784E-04  5.9577155E-07  2.9673402E-07  4.4404104E-08  1.6146111E-06  2.0913167E-01  9.7309457E+21
                                                              2.8722807E-10  5.6958244E-11  1.3666353E-10  8.3235003E-13  4.2375084E-10  6.3725894E-14  6.1515268E-12  1.3800781E-10
                                                              1.7010709E-12  3.0018900E-12  1.5120221E-13  4.3917064E-10  3.6064783E-11  6.4620622E-12  7.8149194E-01
0 30  15.900  18.400    3   88.10098  216.70   7.2689215E+23  3.8748672E-06  3.3022102E-04  1.2311941E-06  2.7709547E-07  2.4645878E-08  1.5507115E-06  2.0914000E-01  6.5446310E+21
                                                              2.5282212E-10  5.2636995E-11  5.4443866E-10  1.2052458E-13  1.4079212E-09  1.0688070E-13  1.8047994E-11  3.1528710E-10
                                                              1.7011385E-12  3.0020094E-12  6.5411299E-13  3.4558970E-10  3.4979752E-11  1.2556604E-11  7.8152311E-01
0 31  18.400  20.900    3   59.54031  216.82   4.9093221E+23  3.8862581E-06  3.3020004E-04  2.3286432E-06  2.4327719E-07  1.4555368E-08  1.4458049E-06  2.0912670E-01  4.4506013E+21
                                                              2.5244556E-10  3.5555388E-11  1.2493504E-09  3.2684477E-14  3.6902794E-09  2.0288698E-13  5.0221820E-11  4.6577109E-10
                                                              1.7010303E-12  3.0018180E-12  3.6358362E-12  2.5607286E-10  3.4492874E-11  2.7685876E-11  7.8147340E-01
0 32  20.900  23.400    3   40.31368  218.67   3.2958877E+23  4.0879791E-06  3.3021043E-04  3.6490662E-06  2.0623764E-07  1.2591154E-08  1.2677109E-06  2.0913330E-01  2.9773117E+21
                                                              3.1758093E-10  2.3155393E-11  2.1904809E-09  1.7305737E-14  5.4078155E-09  5.4537012E-13  1.0109106E-10  5.5077498E-10
                                                              1.7010835E-12  3.0019125E-12  1.1514853E-11  1.8671142E-10  4.0965085E-11  5.9786377E-11  7.8149790E-01
0 33  23.400  26.000    3   27.24163  221.20   2.2881965E+23  4.3704754E-06  3.3022408E-04  4.8926722E-06  1.8089848E-07  1.4512637E-08  1.0865689E-06  2.0914188E-01  2.0573884E+21
                                                              5.9464544E-10  1.8205744E-11  3.4402441E-09  1.3193993E-14  5.6588125E-09  1.7758346E-12  1.6738617E-10  6.3299854E-10
                                                              1.7096972E-12  3.0020370E-12  3.2786131E-11  1.2041997E-10  5.4991279E-11  1.1686949E-10  7.8153038E-01
0 34  26.000  28.600    3   18.33134  223.73   1.5228409E+23  4.5605593E-06  3.3023432E-04  5.7259281E-06  1.6066019E-07  1.5879984E-08  9.9467013E-07  2.0914836E-01  1.3644646E+21
                                                              1.2161456E-09  1.5637172E-11  4.6876809E-09  9.6267819E-15  4.8762860E-09  4.7013608E-12  2.2407720E-10  7.4835604E-10
                                                              1.7623163E-12  3.0021294E-12  7.9987690E-11  7.0036116E-11  7.0400748E-11  1.7713314E-10  7.8155446E-01
0 35  28.600  30.000    3   13.37327  225.77   5.9831821E+22  4.6840278E-06  3.3021014E-04  6.3312023E-06  1.4650675E-07  1.6778912E-08  9.3498068E-07  2.0913304E-01  5.4039593E+20
                                                              2.0419038E-09  1.3964251E-11  5.7416418E-09  7.1272732E-15  4.0315729E-09  9.2352515E-12  2.6679647E-10  9.1390961E-10
                                                              1.8596008E-12  3.0019099E-12  1.4880504E-10  3.7866241E-11  8.2679183E-11  2.2585667E-10  7.8149736E-01
0
0  L  PATH BOUNDARIES      PBAR     TBAR                        ACCUMULATED MOLECULAR AMOUNTS FOR TOTAL PATH
        FROM     TO
        (KM)    (KM)       (MB)      (K)      AIR        H2O       CO2        O3       N2O        CO       CH4        O2     OTHER   
                                                          NO       SO2       NO2       NH3      HNO3        OH        HF       HCL   
                                                         HBR        HI       CLO       OCS      H2CO      HOCL        N2   
0 35   0.000  30.000    511.95004  250.37  2.127E+25 4.714E+22 7.008E+21 7.538E+18 6.575E+18 2.371E+18 3.524E+19 4.438E+24 1.906E+23
                                                     6.615E+15 2.941E+15 4.161E+15 4.689E+15 9.351E+15 2.915E+12 1.716E+14 7.614E+15
                                                     3.612E+13 6.370E+13 3.503E+13 1.104E+16 7.197E+15 2.640E+14 1.658E+25
Release 2.20   
  
1                    *****PROGRAM LBLATM*****                              



 CONTROL CARD 3.1: MODEL AND OPTIONS 

          MODEL   =     6
          ITYPE   =     2
          IBMAX   =     0
          NOZERO  =     1
          NOPRNT  =     1
          NMOL    =    22
          IPUNCH  =     1
          IFXTYP  =     0
          MUNITS  =     0
          RE      =      0.000 KM
          HSPACE  =      0.000 KM
          VBAR    =      0.000 CM-1
          REF_LAT =      0.000 DEG



 CONTROL CARD 3.1 PARAMETERS WITH DEFAULTS:

          MODEL   =     6
          ITYPE   =     2
          IBMAX   =     0
          NOZERO  =     1
          NOPRNT  =     1
          NMOL    =    22
          IPUNCH  =     1
          IFXTYP  =     0
          MUNITS  =     0
          RE      =   6371.230 KM
          HSPACE  =    100.000 KM
          VBAR    =      0.000 CM-1
          REF_LAT =     45.000 DEG



 SLANT PATH SELECTED, ITYPE =     2



 CONTROL CARD 3.2:  SLANT PATH PARAMETERS

          H1      =     0.000000 KM
          H2      =    30.000000 KM
          ANGLE   =     0.000000 DEG
          RANGE   =     0.000000 KM
          BETA    =     0.000000 DEG
          LEN     =          0



 AUTOLAYERING SELECTED

          AVTRAT    =     1.50
          TDIFF1    =     3.00
          TDIFF2    =     3.00
          ALTD1     =     0.00
          ALTD2     =   100.00
    - Using LOWTRAN6 refractive index -
1ATMOSPHERIC PROFILE SELECTED IS: M =   6     U. S. STANDARD,  1976   


 CASE 2A: GIVEN H1, H2, ANGLE



 SLANT PATH PARAMETERS IN STANDARD FORM

          H1         =     0.000000 KM
          H2         =    30.000000 KM
          ANGLE      =     0.000000 DEG
          sin(ANGLE) =     0.000000
          PHI        =   180.000000 DEG
          sin(PHI)   =     0.000000
          HMIN       =     0.000000 KM
          LEN        =          0



 LBLRTM LAYER BOUNDARIES PRODUCED BY THE AUTOMATIC LAYERING ROUTINE AUTLAY
 THE USER SHOULD EXAMINE THESE BOUNDARIES AND MODIFY THEM IF APPROPRIATE
 THE FOLLOWING PARAMETERS ARE USED:

          AVTRAT    =     1.50       = MAX RATIO OF VOIGT WIDTHS
          TDIFF1    =     3.00       = MAX TEMP DIFF AT   0. KM
          TDIFF2    =     3.00       = MAX TEMP DIFF AT  30. KM
          ALZERO    =     0.040 CM-1 = AVERAGE LORENTZ WIDTH AT STP
          AVMWT     =    36.00       = AVERAGE  MOLECULAR WEIGHT
          VBAR      =     0.00  CM-1 = AVERAGE WAVENUMBER


    I      Z         P         T      LORENTZ   DOPPLER     ZETA     VOIGT     VOIGT     TEMP
          (KM)      (MB)      (K)      (CM-1)    (CM-1)              (CM-1)    RATIO     DIFF (K)

    1     0.000  1013.00000   288.20  0.04053   0.00000     1.000   0.04053      1.04       2.6
    2     0.400   965.67480   285.60  0.03881   0.00000     1.000   0.03881      1.04       2.6
    3     0.800   920.56055   283.00  0.03717   0.00000     1.000   0.03717      1.04       2.6
    4     1.200   877.00861   280.40  0.03557   0.00000     1.000   0.03557      1.05       2.6
    5     1.600   834.99811   277.80  0.03403   0.00000     1.000   0.03403      1.05       2.6
    6     2.000   795.00000   275.20  0.03255   0.00000     1.000   0.03255      1.05       2.6
    7     2.400   756.06140   272.60  0.03110   0.00000     1.000   0.03110      1.05       2.6
    8     2.800   719.02991   270.00  0.02972   0.00000     1.000   0.02972      1.05       2.6
    9     3.200   683.39880   267.40  0.02838   0.00000     1.000   0.02838      1.05       2.6
   10     3.600   649.14075   264.80  0.02709   0.00000     1.000   0.02709      1.05       2.6
   11     4.000   616.59998   262.20  0.02586   0.00000     1.000   0.02586      1.05       2.6
   12     4.400   584.95221   259.60  0.02466   0.00000     1.000   0.02466      1.05       2.6
   13     4.800   554.92877   257.00  0.02351   0.00000     1.000   0.02351      1.05       2.6
   14     5.200   526.09204   254.40  0.02240   0.00000     1.000   0.02240      1.05       2.6
   15     5.600   498.41818   251.80  0.02133   0.00000     1.000   0.02133      1.05       2.6
   16     6.000   472.20001   249.20  0.02032   0.00000     1.000   0.02032      1.05       2.6
   17     6.400   446.73975   246.60  0.01932   0.00000     1.000   0.01932      1.05       2.6
   18     6.800   422.65225   244.00  0.01838   0.00000     1.000   0.01838      1.05       2.6
   19     7.200   399.54886   241.40  0.01747   0.00000     1.000   0.01747      1.05       2.6
   20     7.600   377.41113   238.80  0.01659   0.00000     1.000   0.01659      1.05       2.6
   21     8.000   356.50000   236.20  0.01575   0.00000     1.000   0.01575      1.05       2.6
   22     8.400   336.24512   233.60  0.01494   0.00000     1.000   0.01494      1.05       2.6
   23     8.800   317.14105   231.00  0.01417   0.00000     1.000   0.01417      1.06       2.6
   24     9.200   298.87512   228.42  0.01343   0.00000     1.000   0.01343      1.06       2.6
   25     9.600   281.42831   225.86  0.01272   0.00000     1.000   0.01272      1.06       2.6
   26    10.000   265.00000   223.30  0.01204   0.00000     1.000   0.01204      1.06       2.6
   27    10.400   249.09088   220.70  0.01139   0.00000     1.000   0.01139      1.06       2.6
   28    10.800   234.13689   218.10  0.01077   0.00000     1.000   0.01077      1.50       1.4
   29    13.400   155.70358   216.70  0.00718   0.00000     1.000   0.00718      1.48       0.0
   30    15.900   105.13824   216.70  0.00485   0.00000     1.000   0.00485      1.48       0.0
   31    18.400    71.05040   216.70  0.00328   0.00000     1.000   0.00328      1.48       0.8
   32    20.900    48.03492   217.51  0.00221   0.00000     1.000   0.00221      1.48       2.5
   33    23.400    32.59806   220.00  0.00149   0.00000     1.000   0.00149      1.50       2.6
   34    26.000    21.89479   222.56  0.00100   0.00000     1.000   0.00100      1.49       2.5
   35    28.600    14.77366   225.10  0.00067   0.00000     1.000   0.00067      1.24       1.4
   36    30.000    11.97000   226.50  0.00054   0.00000     1.000   0.00054      0.00       0.0
1CALCULATION OF THE REFRACTED PATH THROUGH THE ATMOSPHERE


    I        ALTITUDE        THETA   DRANGE   RANGE     DBETA   BETA       PHI     DBEND  BENDING    PBAR     TBAR    RHOBAR
          FROM       TO
          (KM)      (KM)     (DEG)    (KM)     (KM)     (DEG)   (DEG)     (DEG)    (DEG)   (DEG)     (MB)      (K)  (MOL CM-3)

             H1 TO H2

    1     0.000     0.400    0.000    0.400    0.400    0.000    0.000  180.000    0.000    0.000  989.301  286.906 2.50E+19
    2     0.400     0.800    0.000    0.400    0.800    0.000    0.000  180.000    0.000    0.000  943.084  284.306 2.40E+19
    3     0.800     1.000    0.000    0.200    1.000    0.000    0.000  180.000    0.000    0.000  909.671  282.351 2.33E+19
    4     1.000     1.200    0.000    0.200    1.200    0.000    0.000  180.000    0.000    0.000  887.896  281.052 2.29E+19
    5     1.200     1.600    0.000    0.400    1.600    0.000    0.000  180.000    0.000    0.000  855.971  279.107 2.22E+19
    6     1.600     2.000    0.000    0.400    2.000    0.000    0.000  180.000    0.000    0.000  814.968  276.507 2.13E+19
    7     2.000     2.400    0.000    0.400    2.400    0.000    0.000  180.000    0.000    0.000  775.501  273.907 2.05E+19
    8     2.400     2.800    0.000    0.400    2.800    0.000    0.000  180.000    0.000    0.000  737.516  271.307 1.97E+19
    9     2.800     3.000    0.000    0.200    3.000    0.000    0.000  180.000    0.000    0.000  710.107  269.352 1.91E+19
   10     3.000     3.200    0.000    0.200    3.200    0.000    0.000  180.000    0.000    0.000  692.293  268.052 1.87E+19
   11     3.200     3.600    0.000    0.400    3.600    0.000    0.000  180.000    0.000    0.000  666.242  266.107 1.81E+19
   12     3.600     4.000    0.000    0.400    4.000    0.000    0.000  180.000    0.000    0.000  632.843  263.507 1.74E+19
   13     4.000     4.400    0.000    0.400    4.400    0.000    0.000  180.000    0.000    0.000  600.749  260.907 1.67E+19
   14     4.400     4.800    0.000    0.400    4.800    0.000    0.000  180.000    0.000    0.000  569.915  258.307 1.60E+19
   15     4.800     5.000    0.000    0.200    5.000    0.000    0.000  180.000    0.000    0.000  547.709  256.352 1.55E+19
   16     5.000     5.200    0.000    0.200    5.200    0.000    0.000  180.000    0.000    0.000  533.289  255.052 1.51E+19
   17     5.200     5.600    0.000    0.400    5.600    0.000    0.000  180.000    0.000    0.000  512.232  253.107 1.47E+19
   18     5.600     6.000    0.000    0.400    6.000    0.000    0.000  180.000    0.000    0.000  485.287  250.507 1.40E+19
   19     6.000     6.400    0.000    0.400    6.400    0.000    0.000  180.000    0.000    0.000  459.448  247.907 1.34E+19
   20     6.400     6.800    0.000    0.400    6.800    0.000    0.000  180.000    0.000    0.000  434.675  245.307 1.28E+19
   21     6.800     7.000    0.000    0.200    7.000    0.000    0.000  180.000    0.000    0.000  416.871  243.352 1.24E+19
   22     7.000     7.200    0.000    0.200    7.200    0.000    0.000  180.000    0.000    0.000  405.319  242.052 1.21E+19
   23     7.200     7.600    0.000    0.400    7.600    0.000    0.000  180.000    0.000    0.000  388.460  240.108 1.17E+19
   24     7.600     8.000    0.000    0.400    8.000    0.000    0.000  180.000    0.000    0.000  366.937  237.508 1.12E+19
   25     8.000     8.400    0.000    0.400    8.400    0.000    0.000  180.000    0.000    0.000  346.354  234.908 1.07E+19
   26     8.400     8.800    0.000    0.400    8.800    0.000    0.000  180.000    0.000    0.000  326.675  232.308 1.02E+19
   27     8.800     9.000    0.000    0.200    9.000    0.000    0.000  180.000    0.000    0.000  312.566  230.352 9.83E+18
   28     9.000     9.200    0.000    0.200    9.200    0.000    0.000  180.000    0.000    0.000  303.433  229.062 9.59E+18
   29     9.200     9.600    0.000    0.400    9.600    0.000    0.000  180.000    0.000    0.000  290.135  227.148 9.25E+18
   30     9.600    10.000    0.000    0.400   10.000    0.000    0.000  180.000    0.000    0.000  273.199  224.588 8.81E+18
   31    10.000    10.400    0.000    0.400   10.400    0.000    0.000  180.000    0.000    0.000  257.030  222.008 8.38E+18
   32    10.400    10.800    0.000    0.400   10.800    0.000    0.000  180.000    0.000    0.000  241.599  219.408 7.97E+18
   33    10.800    11.000    0.000    0.200   11.000    0.000    0.000  180.000    0.000    0.000  230.565  217.452 7.68E+18
   34    11.000    12.000    0.000    1.000   12.000    0.000    0.000  180.000    0.000    0.000  210.499  216.751 7.02E+18
   35    12.000    13.000    0.000    1.000   13.000    0.000    0.000  180.000    0.000    0.000  179.900  216.700 6.00E+18
   36    13.000    13.400    0.000    0.400   13.400    0.000    0.000  180.000    0.000    0.000  160.752  216.700 5.37E+18
   37    13.400    14.000    0.000    0.600   14.000    0.000    0.000  180.000    0.000    0.000  148.702  216.700 4.97E+18
   38    14.000    15.000    0.000    1.000   15.000    0.000    0.000  180.000    0.000    0.000  131.400  216.700 4.38E+18
   39    15.000    15.900    0.000    0.900   15.900    0.000    0.000  180.000    0.000    0.000  113.119  216.700 3.77E+18
   40    15.900    16.000    0.000    0.100   16.000    0.000    0.000  180.000    0.000    0.000  104.319  216.700 3.49E+18
   41    16.000    17.000    0.000    1.000   17.000    0.000    0.000  180.000    0.000    0.000   96.000  216.700 3.20E+18
   42    17.000    18.000    0.000    1.000   18.000    0.000    0.000  180.000    0.000    0.000   82.075  216.700 2.74E+18
   43    18.000    18.400    0.000    0.400   18.400    0.000    0.000  180.000    0.000    0.000   73.350  216.700 2.45E+18
   44    18.400    19.000    0.000    0.600   19.000    0.000    0.000  180.000    0.000    0.000   67.860  216.700 2.27E+18
   45    19.000    20.000    0.000    1.000   20.000    0.000    0.000  180.000    0.000    0.000   59.980  216.700 2.00E+18
   46    20.000    20.900    0.000    0.900   20.900    0.000    0.000  180.000    0.000    0.000   51.665  217.095 1.72E+18
   47    20.900    21.000    0.000    0.100   21.000    0.000    0.000  180.000    0.000    0.000   47.663  217.555 1.59E+18
   48    21.000    22.000    0.000    1.000   22.000    0.000    0.000  180.000    0.000    0.000   43.883  218.086 1.45E+18
   49    22.000    23.000    0.000    1.000   23.000    0.000    0.000  180.000    0.000    0.000   37.572  219.086 1.24E+18
   50    23.000    23.400    0.000    0.400   23.400    0.000    0.000  180.000    0.000    0.000   33.634  219.798 1.11E+18
   51    23.400    24.000    0.000    0.600   24.000    0.000    0.000  180.000    0.000    0.000   31.160  220.295 1.02E+18
   52    24.000    25.000    0.000    1.000   25.000    0.000    0.000  180.000    0.000    0.000   27.607  221.086 9.03E+17
   53    25.000    26.000    0.000    1.000   26.000    0.000    0.000  180.000    0.000    0.000   23.694  222.067 7.71E+17
   54    26.000    27.500    0.000    1.500   27.500    0.000    0.000  180.000    0.000    0.000   19.665  223.251 6.35E+17
   55    27.500    28.600    0.000    1.100   28.600    0.000    0.000  180.000    0.000    0.000   16.103  224.534 5.18E+17
   56    28.600    30.000    0.000    1.400   30.000    0.000    0.000  180.000    0.000    0.000   13.373  225.774 4.27E+17
1INTEGRATED ABSORBER AMOUNTS BY LAYER


    I  LAYER BOUNDARIES                               INTEGRATED AMOUNTS (MOL CM-2)
          FROM       TO     AIR       H2O       CO2        O3       N2O        CO       CH4        O2        NO   
          (KM)      (KM)                SO2       NO2       NH3      HNO3        OH        HF       HCL       HBR   
                                         HI       CLO       OCS      H2CO      HOCL        N2   
    1     0.000     0.400 9.986E+23 7.324E+21 3.274E+20 2.690E+16 3.175E+17 1.478E+17 1.687E+18 2.073E+23 2.976E+14
                                    2.923E+14 2.282E+13 4.960E+14 5.138E+13 4.365E+10 9.921E+09 9.372E+14 1.687E+12
                                    2.976E+12 9.921E+09 5.933E+14 2.037E+15 8.146E+12 7.748E+23
    2     0.400     0.800 9.607E+23 6.396E+21 3.152E+20 2.692E+16 3.056E+17 1.404E+17 1.624E+18 1.996E+23 2.865E+14
                                    2.714E+14 2.197E+13 4.775E+14 5.306E+13 4.202E+10 9.551E+09 8.037E+14 1.624E+12
                                    2.865E+12 9.551E+09 5.673E+14 1.419E+15 8.911E+12 7.459E+23
    3     0.800     1.000 4.671E+23 2.891E+21 1.533E+20 1.349E+16 1.487E+17 6.760E+16 7.899E+17 9.711E+22 1.394E+14
                                    1.285E+14 1.069E+13 2.323E+14 2.721E+13 2.044E+10 4.646E+09 3.583E+14 7.899E+11
                                    1.394E+12 4.646E+09 2.746E+14 5.397E+14 4.771E+12 3.629E+23
    4     1.000     1.200 4.581E+23 2.694E+21 1.504E+20 1.349E+16 1.458E+17 6.585E+16 7.748E+17 9.525E+22 1.367E+14
                                    1.230E+14 1.048E+13 2.261E+14 2.758E+13 2.005E+10 4.653E+09 3.317E+14 7.748E+11
                                    1.367E+12 4.558E+09 2.684E+14 4.432E+14 4.899E+12 3.559E+23
    5     1.200     1.600 8.882E+23 4.820E+21 2.917E+20 2.696E+16 2.829E+17 1.264E+17 1.503E+18 1.848E+23 2.652E+14
                                    2.283E+14 2.033E+13 4.287E+14 5.596E+13 3.890E+10 9.604E+09 5.904E+14 1.503E+12
                                    2.652E+12 8.841E+09 5.181E+14 6.456E+14 9.913E+12 6.905E+23
    6     1.600     2.000 8.536E+23 4.159E+21 2.805E+20 2.697E+16 2.720E+17 1.198E+17 1.445E+18 1.777E+23 2.550E+14
                                    2.068E+14 1.955E+13 3.997E+14 5.716E+13 3.740E+10 1.003E+10 5.057E+14 1.445E+12
                                    2.550E+12 8.501E+09 4.947E+14 4.205E+14 1.008E+13 6.639E+23
    7     2.000     2.400 8.199E+23 3.515E+21 2.696E+20 2.658E+16 2.614E+17 1.135E+17 1.389E+18 1.707E+23 2.451E+14
                                    1.847E+14 1.879E+13 3.638E+14 5.813E+13 3.595E+10 1.105E+10 4.334E+14 1.389E+12
                                    2.451E+12 8.170E+09 4.722E+14 2.950E+14 9.834E+12 6.381E+23
    8     2.400     2.800 7.872E+23 2.906E+21 2.590E+20 2.578E+16 2.511E+17 1.074E+17 1.334E+18 1.640E+23 2.354E+14
                                    1.627E+14 1.805E+13 3.229E+14 5.887E+13 3.453E+10 1.282E+10 3.715E+14 1.334E+12
                                    2.354E+12 7.848E+09 4.505E+14 2.250E+14 9.194E+12 6.129E+23
    9     2.800     3.000 3.823E+23 1.260E+21 1.258E+20 1.262E+16 1.220E+17 5.161E+16 6.480E+17 7.967E+22 1.144E+14
                                    7.402E+13 8.767E+12 1.478E+14 2.976E+13 1.677E+10 7.165E+09 1.655E+14 6.480E+11
                                    1.144E+12 3.812E+09 2.177E+14 9.173E+13 4.375E+12 2.977E+23
   10     3.000     3.200 3.745E+23 1.144E+21 1.233E+20 1.242E+16 1.195E+17 5.025E+16 6.350E+17 7.806E+22 1.121E+14
                                    6.913E+13 8.591E+12 1.381E+14 2.988E+13 1.643E+10 7.721E+09 1.533E+14 6.350E+11
                                    1.121E+12 3.735E+09 2.126E+14 8.083E+13 4.194E+12 2.917E+23
   11     3.200     3.600 7.251E+23 1.974E+21 2.387E+20 2.420E+16 2.315E+17 9.651E+16 1.230E+18 1.512E+23 2.170E+14
                                    1.238E+14 1.664E+13 2.463E+14 5.990E+13 3.183E+10 1.727E+10 2.732E+14 1.230E+12
                                    2.170E+12 7.234E+09 4.100E+14 1.356E+14 7.766E+12 5.650E+23
   12     3.600     4.000 6.955E+23 1.622E+21 2.291E+20 2.341E+16 2.221E+17 9.159E+16 1.180E+18 1.451E+23 2.083E+14
                                    1.069E+14 1.597E+13 2.115E+14 6.017E+13 3.054E+10 2.008E+10 2.344E+14 1.180E+12
                                    2.083E+12 6.942E+09 3.912E+14 1.073E+14 7.014E+12 5.422E+23
   13     4.000     4.400 6.668E+23 1.320E+21 2.197E+20 2.304E+16 2.131E+17 8.723E+16 1.132E+18 1.392E+23 1.997E+14
                                    9.321E+13 1.531E+13 1.792E+14 6.018E+13 2.930E+10 2.377E+10 2.007E+14 1.132E+12
                                    1.997E+12 6.658E+09 3.732E+14 8.725E+13 6.270E+12 5.200E+23
   14     4.400     4.800 6.389E+23 1.063E+21 2.106E+20 2.304E+16 2.042E+17 8.339E+16 1.085E+18 1.334E+23 1.915E+14
                                    8.206E+13 1.468E+13 1.497E+14 5.991E+13 2.808E+10 2.863E+10 1.714E+14 1.085E+12
                                    1.915E+12 6.382E+09 3.560E+14 7.311E+13 5.545E+12 4.985E+23
   15     4.800     5.000 3.098E+23 4.518E+20 1.021E+20 1.154E+16 9.905E+16 4.036E+16 5.262E+17 6.469E+22 9.286E+13
                                    3.732E+13 7.119E+12 6.538E+13 2.989E+13 1.362E+10 1.646E+10 7.616E+13 5.262E+11
                                    9.286E+11 3.095E+09 1.720E+14 3.202E+13 2.530E+12 2.417E+23
   16     5.000     5.200 3.032E+23 4.063E+20 9.997E+19 1.152E+16 9.695E+16 3.943E+16 5.150E+17 6.332E+22 9.089E+13
                                    3.506E+13 6.968E+12 5.979E+13 2.992E+13 1.333E+10 1.791E+10 7.036E+13 5.150E+11
                                    9.089E+11 3.030E+09 1.679E+14 2.942E+13 2.374E+12 2.366E+23
   17     5.200     5.600 5.861E+23 6.952E+20 1.933E+20 2.285E+16 1.874E+17 7.597E+16 9.957E+17 1.224E+23 1.757E+14
                                    6.396E+13 1.347E+13 1.047E+14 6.014E+13 2.577E+10 4.013E+10 1.248E+14 9.957E+11
                                    1.757E+12 5.857E+09 3.234E+14 5.209E+13 4.297E+12 4.574E+23
   18     5.600     6.000 5.610E+23 5.644E+20 1.850E+20 2.266E+16 1.794E+17 7.239E+16 9.532E+17 1.172E+23 1.682E+14
                                    5.664E+13 1.290E+13 8.763E+13 6.064E+13 2.467E+10 4.672E+10 1.064E+14 9.532E+11
                                    1.682E+12 5.607E+09 3.081E+14 4.430E+13 3.765E+12 4.379E+23
   19     6.000     6.400 5.367E+23 4.520E+20 1.771E+20 2.295E+16 1.717E+17 6.866E+16 9.120E+17 1.121E+23 1.610E+14
                                    5.051E+13 1.234E+13 7.256E+13 6.108E+13 2.362E+10 5.461E+10 9.046E+13 9.121E+11
                                    1.610E+12 5.365E+09 2.932E+14 3.831E+13 3.331E+12 4.190E+23
   20     6.400     6.800 5.131E+23 3.566E+20 1.693E+20 2.375E+16 1.642E+17 6.483E+16 8.721E+17 1.073E+23 1.540E+14
                                    4.537E+13 1.180E+13 5.937E+13 6.146E+13 2.261E+10 6.407E+10 7.660E+13 8.724E+11
                                    1.540E+12 5.132E+09 2.788E+14 3.371E+13 2.978E+12 4.008E+23
   21     6.800     7.000 2.484E+23 1.492E+20 8.199E+19 1.220E+16 7.951E+16 3.108E+16 4.221E+17 5.193E+22 7.454E+13
                                    2.095E+13 5.714E+12 2.553E+13 3.091E+13 1.095E+10 3.613E+10 3.382E+13 4.224E+11
                                    7.454E+11 2.485E+09 1.344E+14 1.532E+13 1.370E+12 1.940E+23
   22     7.000     7.200 2.428E+23 1.330E+20 8.015E+19 1.238E+16 7.772E+16 3.013E+16 4.126E+17 5.076E+22 7.287E+13
                                    1.988E+13 5.586E+12 2.302E+13 3.091E+13 1.072E+10 3.890E+10 3.118E+13 4.129E+11
                                    7.287E+11 2.431E+09 1.310E+14 1.440E+13 1.298E+12 1.897E+23
   23     7.200     7.600 4.685E+23 2.249E+20 1.547E+20 2.518E+16 1.500E+17 5.727E+16 7.960E+17 9.796E+22 1.406E+14
                                    3.679E+13 1.078E+13 3.919E+13 6.142E+13 2.074E+10 8.606E+10 5.533E+13 7.968E+11
                                    1.406E+12 4.706E+09 2.516E+14 2.628E+13 2.400E+12 3.661E+23
   24     7.600     8.000 4.474E+23 1.797E+20 1.477E+20 2.578E+16 1.432E+17 5.359E+16 7.597E+17 9.354E+22 1.343E+14
                                    3.320E+13 1.029E+13 3.161E+13 6.100E+13 1.988E+10 9.856E+10 4.721E+13 7.609E+11
                                    1.343E+12 4.511E+09 2.388E+14 2.329E+13 2.165E+12 3.496E+23
   25     8.000     8.400 4.270E+23 1.332E+20 1.410E+20 2.779E+16 1.366E+17 4.982E+16 7.246E+17 8.928E+22 1.281E+14
                                    3.023E+13 9.842E+12 2.491E+13 6.052E+13 1.910E+10 1.143E+11 4.022E+13 7.262E+11
                                    1.281E+12 4.348E+09 2.267E+14 2.069E+13 1.982E+12 3.336E+23
   26     8.400     8.800 4.072E+23 9.080E+19 1.345E+20 3.147E+16 1.303E+17 4.603E+16 6.905E+17 8.516E+22 1.222E+14
                                    2.776E+13 9.420E+12 1.913E+13 5.999E+13 1.840E+10 1.340E+11 3.421E+13 6.927E+11
                                    1.222E+12 4.212E+09 2.150E+14 1.842E+13 1.843E+12 3.182E+23
   27     8.800     9.000 1.967E+23 3.394E+19 6.496E+19 1.729E+16 6.291E+16 2.171E+16 3.334E+17 4.114E+22 5.906E+13
                                    1.304E+13 4.563E+12 7.840E+12 2.983E+13 8.955E+09 7.554E+10 1.516E+13 3.347E+11
                                    5.906E+11 2.059E+09 1.035E+14 8.452E+12 8.737E+11 1.537E+23
   28     9.000     9.200 1.921E+23 2.808E+19 6.342E+19 1.827E+16 6.137E+16 2.083E+16 3.252E+17 4.017E+22 5.766E+13
                                    1.251E+13 4.470E+12 6.817E+12 2.978E+13 8.786E+09 8.153E+10 1.399E+13 3.267E+11
                                    5.766E+11 2.047E+09 1.008E+14 7.990E+12 8.462E+11 1.501E+23
   29     9.200     9.600 3.699E+23 4.251E+19 1.221E+20 3.919E+16 1.180E+17 3.901E+16 6.255E+17 7.736E+22 1.110E+14
                                    2.356E+13 8.675E+12 1.093E+13 5.961E+13 1.705E+10 1.818E+11 2.482E+13 6.292E+11
                                    1.110E+12 4.113E+09 1.933E+14 1.471E+13 1.622E+12 2.891E+23
   30     9.600    10.000 3.523E+23 2.920E+19 1.163E+20 4.309E+16 1.122E+17 3.579E+16 5.945E+17 7.367E+22 1.058E+14
                                    2.176E+13 8.347E+12 8.128E+12 5.977E+13 1.641E+10 2.103E+11 2.118E+13 5.993E+11
                                    1.058E+12 4.146E+09 1.831E+14 1.319E+13 1.535E+12 2.753E+23
   31    10.000    10.400 3.353E+23 2.065E+19 1.107E+20 4.865E+16 1.064E+17 3.273E+16 5.646E+17 7.012E+22 1.006E+14
                                    2.020E+13 8.139E+12 6.036E+12 6.014E+13 1.578E+10 2.490E+11 1.827E+13 5.703E+11
                                    1.006E+12 4.431E+09 1.732E+14 1.204E+13 1.476E+12 2.620E+23
   32    10.400    10.800 3.189E+23 1.508E+19 1.053E+20 5.635E+16 1.007E+17 2.985E+16 5.358E+17 6.669E+22 9.573E+13
                                    1.884E+13 8.044E+12 4.477E+12 6.072E+13 1.516E+10 3.014E+11 1.596E+13 5.425E+11
                                    9.573E+11 5.016E+09 1.636E+14 1.120E+13 1.443E+12 2.492E+23
   33    10.800    11.000 1.537E+23 5.944E+18 5.077E+19 3.148E+16 4.837E+16 1.394E+16 2.578E+17 3.215E+22 4.615E+13
                                    8.951E+12 3.992E+12 1.786E+12 3.062E+13 7.366E+09 1.739E+11 7.215E+12 2.615E+11
                                    4.615E+11 2.755E+09 7.844E+13 5.307E+12 7.104E+11 1.202E+23
   34    11.000    12.000 7.020E+23 1.890E+19 2.318E+20 1.813E+17 2.190E+17 5.894E+16 1.172E+18 1.468E+23 2.107E+14
                                    4.002E+13 2.016E+13 5.936E+12 1.548E+14 3.419E+10 1.081E+12 3.145E+13 1.194E+12
                                    2.107E+12 1.721E+10 3.538E+14 2.396E+13 3.388E+12 5.486E+23
   35    12.000    13.000 6.001E+23 8.815E+18 1.982E+20 2.070E+17 1.845E+17 4.257E+16 9.931E+17 1.255E+23 1.799E+14
                                    3.360E+13 2.249E+13 2.742E+12 1.547E+14 3.039E+10 1.489E+12 3.204E+13 1.021E+12
                                    1.802E+12 2.552E+10 2.943E+14 2.068E+13 3.070E+12 4.690E+23
   36    13.000    13.400 2.148E+23 2.074E+18 7.093E+19 8.722E+16 6.531E+16 1.308E+16 3.528E+17 4.493E+22 6.410E+13
                                    1.204E+13 1.062E+13 5.505E+11 6.159E+13 1.135E+10 7.256E+11 1.528E+13 3.654E+11
                                    6.449E+11 1.355E+10 1.027E+14 7.574E+12 1.138E+12 1.679E+23
   37    13.400    14.000 2.980E+23 2.137E+18 9.842E+19 1.384E+17 8.988E+16 1.613E+16 4.866E+17 6.233E+22 8.834E+13
                                    1.677E+13 1.912E+13 4.609E+11 9.384E+13 1.642E+10 1.225E+12 2.642E+13 5.070E+11
                                    8.947E+11 2.511E+10 1.392E+14 1.069E+13 1.635E+12 2.329E+23
   38    14.000    15.000 4.383E+23 2.396E+18 1.447E+20 2.507E+17 1.303E+17 1.963E+16 7.086E+17 9.166E+22 1.268E+14
                                    2.497E+13 5.048E+13 3.234E+11 1.701E+14 2.706E+10 2.515E+12 5.645E+13 7.455E+11
                                    1.316E+12 5.885E+10 1.944E+14 1.588E+13 2.716E+12 3.425E+23
   39    15.000    15.900 3.397E+23 1.535E+18 1.122E+20 2.520E+17 9.906E+16 1.203E+16 5.421E+17 7.104E+22 9.393E+13
                                    1.954E+13 7.745E+13 1.113E+11 1.920E+14 2.509E+10 2.879E+12 6.562E+13 5.778E+11
                                    1.020E+12 7.873E+10 1.390E+14 1.224E+13 2.603E+12 2.655E+23
   40    15.900    16.000 3.490E+22 1.396E+17 1.153E+19 2.995E+16 1.006E+16 1.085E+15 5.529E+16 7.300E+21 9.386E+12
                                    2.008E+12 1.080E+13 7.654E+09 2.512E+13 2.853E+09 3.596E+11 8.124E+12 5.938E+10
                                    1.048E+11 1.073E+10 1.362E+13 1.251E+12 3.026E+11 2.728E+22
   41    16.000    17.000 3.202E+23 1.250E+18 1.057E+20 3.256E+17 9.072E+16 8.897E+15 5.024E+17 6.697E+22 8.336E+13
                                    1.783E+13 1.308E+14 5.011E+10 3.168E+14 2.966E+10 4.282E+12 8.724E+13 5.448E+11
                                    9.613E+11 1.363E+11 1.180E+14 1.135E+13 3.287E+12 2.503E+23
   42    17.000    18.000 2.738E+23 1.051E+18 9.040E+19 3.759E+17 7.473E+16 6.093E+15 4.211E+17 5.725E+22 6.742E+13
                                    1.391E+13 1.735E+14 2.391E+10 4.569E+14 3.183E+10 5.719E+12 9.501E+13 4.657E+11
                                    8.218E+11 2.116E+11 9.002E+13 9.481E+12 3.831E+12 2.139E+23
   43    18.000    18.400 9.801E+22 3.756E+17 3.236E+19 1.635E+17 2.591E+16 1.840E+15 1.484E+17 2.050E+22 2.361E+13
                                    4.520E+12 8.058E+13 5.935E+09 2.245E+14 1.335E+10 2.757E+12 3.881E+13 1.667E+11
                                    2.942E+11 1.169E+11 2.959E+13 3.348E+12 1.707E+12 7.659E+22
   44    18.400    19.000 1.360E+23 5.229E+17 4.491E+19 2.565E+17 3.498E+16 2.269E+15 2.031E+17 2.844E+22 3.304E+13
                                    5.721E+12 1.311E+14 6.363E+09 3.821E+14 2.081E+10 4.788E+12 5.769E+13 2.314E+11
                                    4.083E+11 2.277E+11 3.869E+13 4.626E+12 2.789E+12 1.063E+23
   45    19.000    20.000 2.001E+23 7.756E+17 6.606E+19 4.577E+17 4.899E+16 2.883E+15 2.908E+17 4.184E+22 4.991E+13
                                    7.159E+12 2.429E+14 6.297E+09 7.302E+14 3.766E+10 9.648E+12 9.299E+13 3.403E+11
                                    6.006E+11 6.267E+11 5.156E+13 6.825E+12 5.273E+12 1.563E+23
   46    20.000    20.900 1.549E+23 6.093E+17 5.113E+19 4.289E+17 3.546E+16 1.994E+15 2.159E+17 3.238E+22 4.098E+13
                                    4.576E+12 2.393E+14 3.385E+09 6.994E+14 4.113E+10 1.022E+13 7.798E+13 2.634E+11
                                    4.648E+11 9.306E+11 3.546E+13 5.482E+12 5.530E+12 1.210E+23
   47    20.900    21.000 1.588E+22 6.311E+16 5.245E+18 4.781E+16 3.500E+15 1.966E+14 2.159E+16 3.322E+21 4.384E+12
                                    4.281E+11 2.764E+13 3.086E+08 7.786E+13 5.282E+09 1.217E+12 8.269E+12 2.702E+10
                                    4.768E+10 1.259E+11 3.421E+12 5.828E+11 6.705E+11 1.241E+22
   48    21.000    22.000 1.454E+23 5.849E+17 4.803E+19 4.831E+17 3.091E+16 1.793E+15 1.913E+17 3.042E+22 4.240E+13
                                    3.602E+12 2.835E+14 2.650E+09 7.552E+14 6.063E+10 1.275E+13 7.787E+13 2.474E+11
                                    4.366E+11 1.358E+12 2.926E+13 5.600E+12 7.232E+12 1.137E+23
   49    22.000    23.000 1.240E+23 5.123E+17 4.093E+19 4.831E+17 2.493E+16 1.573E+15 1.528E+17 2.592E+22 4.119E+13
                                    2.699E+12 2.925E+14 2.054E+09 6.940E+14 7.720E+10 1.367E+13 6.965E+13 2.109E+11
                                    3.721E+11 1.583E+12 2.184E+13 5.277E+12 8.230E+12 9.687E+22
   50    23.000    23.400 4.431E+22 1.871E+17 1.463E+19 1.886E+17 8.638E+15 5.873E+14 5.214E+16 9.265E+21 1.669E+13
                                    9.022E+11 1.183E+14 6.912E+08 2.553E+14 3.664E+10 5.673E+12 2.574E+13 7.536E+10
                                    1.330E+11 7.283E+11 7.017E+12 2.042E+12 3.572E+12 3.462E+22
   51    23.400    24.000 6.143E+22 2.624E+17 2.029E+19 2.756E+17 1.170E+16 8.428E+14 7.007E+16 1.285E+22 2.590E+13
                                    1.199E+12 1.787E+14 9.125E+08 3.571E+14 6.283E+10 8.685E+12 3.658E+13 1.045E+11
                                    1.844E+11 1.226E+12 8.901E+12 3.002E+12 5.640E+12 4.801E+22
   52    24.000    25.000 9.026E+22 3.939E+17 2.981E+19 4.391E+17 1.641E+16 1.307E+15 9.818E+16 1.888E+22 5.029E+13
                                    1.649E+12 3.053E+14 1.206E+09 5.173E+14 1.448E+11 1.491E+13 5.659E+13 1.540E+11
                                    2.710E+11 2.710E+12 1.105E+13 4.896E+12 1.029E+13 7.054E+22
   53    25.000    26.000 7.713E+22 3.437E+17 2.547E+19 4.048E+17 1.329E+16 1.171E+15 8.038E+16 1.613E+22 5.987E+13
                                    1.318E+12 3.033E+14 9.008E+08 4.204E+14 1.987E+11 1.471E+13 5.167E+13 1.327E+11
                                    2.315E+11 3.566E+12 7.607E+12 4.685E+12 1.081E+13 6.028E+22
   54    26.000    27.500 9.527E+22 4.317E+17 3.146E+19 5.321E+17 1.562E+16 1.493E+15 9.608E+16 1.993E+22 1.010E+14
                                    1.528E+12 4.244E+14 9.735E+08 4.820E+14 3.718E+11 2.040E+13 6.850E+13 1.663E+11
                                    2.860E+11 6.437E+12 7.438E+12 6.435E+12 1.581E+13 7.446E+22
   55    27.500    28.600 5.701E+22 2.628E+17 1.883E+19 3.398E+17 8.841E+15 9.250E+14 5.539E+16 1.192E+22 8.418E+13
                                    8.530E+11 2.895E+14 4.925E+08 2.606E+14 3.441E+11 1.372E+13 4.546E+13 1.021E+11
                                    1.711E+11 5.744E+12 3.227E+12 4.286E+12 1.117E+13 4.456E+22
   56    28.600    30.000 5.983E+22 2.803E+17 1.976E+19 3.788E+17 8.766E+15 1.004E+15 5.594E+16 1.251E+22 1.222E+14
                                    8.355E+11 3.435E+14 4.264E+08 2.412E+14 5.526E+11 1.596E+13 5.468E+13 1.113E+11
                                    1.796E+11 8.903E+12 2.266E+12 4.947E+12 1.351E+13 4.676E+22
0TOTAL    0.000    30.000 2.127E+2 4.714E+22 7.008E+21 7.538E+18 6.575E+18 2.371E+18 3.524E+19 4.438E+24 6.615E+15
                                   2.941E+15 4.161E+15 4.689E+15 9.351E+15 2.915E+12 1.716E+14 7.614E+15 3.612E+13
                                   6.370E+13 3.503E+13 1.104E+16 7.197E+15 2.640E+14 1.658E+25
1 SUMMARY OF THE GEOMETRY CALCULATION

          MODEL   =     U. S. STANDARD,  1976   
          H1      =     0.000000 KM
          H2      =    30.000000 KM
          ANGLE   =     0.000000 DEG
          RANGE   =    30.000000 KM
          BETA    =     0.000000 DEG
          PHI     =   180.000000 DEG
          HMIN    =     0.000000 KM
          BENDING =     0.000000 DEG
          LEN     =          0
          AIRMAS  = 0.987805    RELATIVE TO A VERTICAL PATH , GROUND TO SPACE
0FINAL SET OF LAYERS FOR INPUT TO LBLRTM
 A LAYER AMOUNT MAY BE SET TO ZERO IF THE CUMULATIVE AMOUNT FOR THAT LAYER AND ABOVE IS LESS THAN 0.1 PERCENT
 OF THE TOTAL AMOUNT. THIS IS DONE ONLY FOR THE FOLLOWING CASES
     1.  IEMIT = 0 (TRANSMITTANCE)
     2.  IEMIT = 1 (RADIANCE) AND IPATH = 3 (PATH LOOKING UP)
 O2 IS NOT INCLUDED
 IF THE AMOUNTS FOR ALL THE MOLECULES BUT O2 ARE ZEROED, THE REMAINING LAYERS ARE ELIMINATED


            LAYER     I I
   L     BOUNDARIES   T P     PBAR     TBAR                          INTEGRATED AMOUNTS (MOLS CM-2)
        FROM     TO   Y T
        (KM)    (KM)  P H     (MB)      (K)         AIR            H2O            CO2             O3            N2O             CO            CH4             O2          OTHER   
                                                                    NO            SO2            NO2            NH3           HNO3             OH             HF            HCL   
                                                                   HBR             HI            CLO            OCS           H2CO           HOCL             N2   
0  1   0.000   0.400    3  989.30115  286.91   9.9860001E+23  7.3235139E+21  3.2738485E+20  2.6904837E+16  3.1746412E+17  1.4781319E+17  1.6865280E+18  2.0734380E+23  8.7925397E+21
                                                              2.9762264E+14  2.9232447E+14  2.2817729E+13  4.9603789E+14  5.1376185E+13  4.3651326E+10  9.9207434E+09  9.3722058E+14
                                                              1.6865285E+12  2.9762275E+12  9.9207434E+09  5.9326142E+14  2.0366756E+15  8.1455061E+12  7.7481059E+23
0  2   0.400   0.800    3  943.08356  284.31   9.6065332E+23  6.3958484E+21  3.1516785E+20  2.6924349E+16  3.0561726E+17  1.4038068E+17  1.6235901E+18  1.9960625E+23  8.4375840E+21
                                                              2.8651636E+14  2.7139412E+14  2.1966222E+13  4.7752718E+14  5.3058667E+13  4.2022330E+10  9.5505306E+09  8.0374407E+14
                                                              1.6235906E+12  2.8651634E+12  9.5505306E+09  5.6729552E+14  1.4192997E+15  8.9110243E+12  7.4589640E+23
0  3   0.800   1.200    3  898.89032  281.71   9.2520747E+23  5.5844686E+21  3.0373300E+20  2.6976045E+16  2.9452893E+17  1.3345271E+17  1.5646860E+18  1.9236400E+23  8.1192335E+21
                                                              2.7612103E+14  2.5151542E+14  2.1169281E+13  4.5846367E+14  5.4786188E+13  4.0497750E+10  9.2993720E+09  6.9002193E+14
                                                              1.5646837E+12  2.7612105E+12  9.2040264E+09  5.4304278E+14  9.8296635E+14  9.6699993E+12  7.1883402E+23
0  4   1.200   1.600    3  855.97083  279.11   8.8815402E+23  4.8203265E+21  2.9174188E+20  2.6957910E+16  2.8290096E+17  1.2637371E+17  1.5029120E+18  1.8476978E+23  7.8141417E+21
                                                              2.6521992E+14  2.2827016E+14  2.0333531E+13  4.2870646E+14  5.5963738E+13  3.8898876E+10  9.6040192E+09  5.9042486E+14
                                                              1.5029117E+12  2.6521997E+12  8.8406579E+09  5.1805674E+14  6.4559754E+14  9.9126493E+12  6.9045608E+23
0  5   1.600   2.000    3  814.96820  276.51   8.5356075E+23  4.1592434E+21  2.8052456E+20  2.6974398E+16  2.7202368E+17  1.1978666E+17  1.4451262E+18  1.7766549E+23  7.5464477E+21
                                                              2.5502226E+14  2.0676900E+14  1.9551691E+13  3.9973865E+14  5.7157446E+13  3.7403259E+10  1.0032000E+10  5.0574220E+14
                                                              1.4451242E+12  2.5502223E+12  8.5007319E+09  4.9474305E+14  4.2046797E+14  1.0082860E+13  6.6390718E+23
0  6   2.000   2.400    3  775.50073  273.91   8.1992657E+23  3.5149497E+21  2.6960470E+20  2.6576057E+16  2.6143475E+17  1.1347365E+17  1.3888723E+18  1.7074948E+23  7.3267441E+21
                                                              2.4509528E+14  1.8473783E+14  1.8790612E+13  3.6380004E+14  5.8130956E+13  3.5947287E+10  1.1050928E+10  4.3335750E+14
                                                              1.3888723E+12  2.4509502E+12  8.1698422E+09  4.7221713E+14  2.9499889E+14  9.8341099E+12  6.3806401E+23
0  7   2.400   2.800    3  737.51648  271.31   7.8724010E+23  2.9058148E+21  2.5897997E+20  2.5782336E+16  2.5113193E+17  1.0742647E+17  1.3341389E+18  1.6402052E+23  7.1343503E+21
                                                              2.3543618E+14  1.6271635E+14  1.8050099E+13  3.2291071E+14  5.8873990E+13  3.4530628E+10  1.2816279E+10  3.7147108E+14
                                                              1.3341378E+12  2.3543601E+12  7.8478720E+09  4.5046278E+14  2.2501775E+14  9.1937267E+12  6.1291872E+23
0  8   2.800   3.200    3  701.29150  268.71   7.5673242E+23  2.4034132E+21  2.4904547E+20  2.5034548E+16  2.4149893E+17  1.0185572E+17  1.2829612E+18  1.5772881E+23  6.9408036E+21
                                                              2.2640507E+14  1.4315780E+14  1.7357735E+13  2.8583987E+14  5.9639287E+13  3.3206120E+10  1.4885872E+10  3.1884609E+14
                                                              1.2829631E+12  2.2640531E+12  7.5468431E+09  4.3024996E+14  1.7256101E+14  8.5695754E+12  5.8940871E+23
0  9   3.200   3.600    3  666.24176  266.11   7.2505064E+23  1.9737429E+21  2.3872359E+20  2.4200418E+16  2.3148980E+17  9.6511978E+16  1.2297900E+18  1.5119162E+23  6.6656157E+21
                                                              2.1702149E+14  1.2380352E+14  1.6638313E+13  2.4626166E+14  5.9899648E+13  3.1829846E+10  1.7274692E+10  2.7319898E+14
                                                              1.2297885E+12  2.1702176E+12  7.2340531E+09  4.1002469E+14  1.3564783E+14  7.7655384E+12  5.6497938E+23
0 10   3.600   4.000    3  632.84338  263.51   6.9550055E+23  1.6215137E+21  2.2907897E+20  2.3414652E+16  2.2213731E+17  9.1588271E+16  1.1801034E+18  1.4508334E+23  6.4116847E+21
                                                              2.0825364E+14  1.0692086E+14  1.5966101E+13  2.1150947E+14  6.0174434E+13  3.0543854E+10  2.0076329E+10  2.3440131E+14
                                                              1.1801035E+12  2.0825376E+12  6.9417866E+09  3.9124125E+14  1.0728604E+14  7.0143857E+12  5.4215341E+23
0 11   4.000   4.400    3  600.74927  260.91   6.6680159E+23  1.3195786E+21  2.1971293E+20  2.3035849E+16  2.1305507E+17  8.7233225E+16  1.1318553E+18  1.3915153E+23  6.1217250E+21
                                                              1.9973918E+14  9.3209867E+13  1.5313333E+13  1.7919949E+14  6.0179899E+13  2.9295081E+10  2.3767310E+10  2.0066507E+14
                                                              1.1318536E+12  1.9973896E+12  6.6579702E+09  3.7324809E+14  8.7252445E+13  6.2703261E+12  5.1998759E+23
0 12   4.400   4.800    3  569.91516  258.31   6.3894405E+23  1.0630197E+21  2.1062195E+20  2.3042364E+16  2.0423947E+17  8.3393868E+16  1.0850227E+18  1.3339399E+23  5.8028701E+21
                                                              1.9147444E+14  8.2058135E+13  1.4679711E+13  1.4965112E+14  5.9914341E+13  2.8082950E+10  2.8632607E+10  1.7138102E+14
                                                              1.0850219E+12  1.9147458E+12  6.3824809E+09  3.5601487E+14  7.3109596E+13  5.5449910E+12  4.9847213E+23
0 13   4.800   5.200    3  540.57709  255.71   6.1295497E+23  8.5816703E+20  2.0211921E+20  2.3056662E+16  1.9599468E+17  7.9788853E+16  1.0412207E+18  1.2800886E+23  5.5360408E+21
                                                              1.8374487E+14  7.2379150E+13  1.4087107E+13  1.2516798E+14  5.9817360E+13  2.6949214E+10  3.4379432E+10  1.4652278E+14
                                                              1.0412207E+12  1.8374475E+12  6.1248220E+09  3.3993170E+14  6.1441990E+13  4.9041281E+12  4.7834843E+23
0 14   5.200   5.600    3  512.23163  253.11   5.8606538E+23  6.9516431E+20  1.9328612E+20  2.2852978E+16  1.8742904E+17  7.5967466E+16  9.9571656E+17  1.2241456E+23  5.3173460E+21
                                                              1.7571466E+14  6.3964185E+13  1.3471464E+13  1.0465046E+14  6.0143341E+13  2.5771502E+10  4.0133960E+10  1.2482202E+14
                                                              9.9571709E+11  1.7571456E+12  5.8571581E+09  3.2343218E+14  5.2090160E+13  4.2969651E+12  4.5744376E+23
0 15   5.600   6.000    3  485.28656  250.51   5.6099957E+23  5.6440064E+20  1.8503234E+20  2.2655117E+16  1.7942516E+17  7.2387387E+16  9.5319666E+17  1.1718712E+23  5.1518297E+21
                                                              1.6821105E+14  5.6639386E+13  1.2896184E+13  8.7634890E+13  6.0640312E+13  2.4670968E+10  4.6718874E+10  1.0644368E+14
                                                              9.5319589E+11  1.6821126E+12  5.6070385E+09  3.0805280E+14  4.4302852E+13  3.7650385E+12  4.3790996E+23
0 16   6.000   6.400    3  459.44778  247.91   5.3669350E+23  4.5197760E+20  1.7705513E+20  2.2949509E+16  1.7168991E+17  6.8663234E+16  9.1199500E+17  1.1213492E+23  4.8978267E+21
                                                              1.6095908E+14  5.0507737E+13  1.2340204E+13  7.2563984E+13  6.1079221E+13  2.3617991E+10  5.4605111E+10  9.0459980E+13
                                                              9.1210147E+11  1.6095910E+12  5.3653038E+09  2.9316219E+14  3.8310718E+13  3.3313063E+12  4.1903055E+23
0 17   6.400   6.800    3  434.67453  245.31   5.1313773E+23  3.5662851E+20  1.6934831E+20  2.3753308E+16  1.6421673E+17  6.4830152E+16  8.7209400E+17  1.0725403E+23  4.5652089E+21
                                                              1.5395320E+14  4.5370529E+13  1.1803061E+13  5.9368377E+13  6.1458319E+13  2.2610495E+10  6.4068620E+10  7.6597999E+13
                                                              8.7240108E+11  1.5395302E+12  5.1317673E+09  2.7875688E+14  3.3711536E+13  2.9776431E+12  4.0079140E+23
0 18   6.800   7.200    3  411.16086  242.71   4.9117119E+23  2.8215977E+20  1.6214225E+20  2.4582353E+16  1.5722898E+17  6.1217591E+16  8.3476270E+17  1.0269005E+23  4.2989561E+21
                                                              1.4740194E+14  4.0829314E+13  1.1300831E+13  4.8551573E+13  6.1815099E+13  2.1675258E+10  7.5024884E+10  6.4997342E+13
                                                              8.3527827E+11  1.4740199E+12  4.9158118E+09  2.6532724E+14  2.9725506E+13  2.6676948E+12  3.8373681E+23
0 19   7.200   7.600    3  388.46005  240.11   4.6850630E+23  2.2487252E+20  1.5467477E+20  2.5176853E+16  1.4998758E+17  5.7273595E+16  7.9596705E+17  9.7960741E+22  4.1012300E+21
                                                              1.4061346E+14  3.6785598E+13  1.0780367E+13  3.9190994E+13  6.1418024E+13  2.0744679E+10  8.6064022E+10  5.5331367E+13
                                                              7.9680963E+11  1.4061354E+12  4.7057377E+09  2.5160381E+14  2.6283851E+13  2.4004809E+12  3.6606375E+23
0 20   7.600   8.000    3  366.93665  237.51   4.4739216E+23  1.7974867E+20  1.4770081E+20  2.5783279E+16  1.4322498E+17  5.3586860E+16  7.5972041E+17  9.3543772E+22  3.9614383E+21
                                                              1.3427347E+14  3.3203530E+13  1.0294302E+13  3.1613801E+13  6.0998107E+13  1.9881038E+10  9.8563252E+10  4.7207256E+13
                                                              7.6088272E+11  1.3427349E+12  4.5114844E+09  2.3882919E+14  2.3290156E+13  2.1652144E+12  3.4955852E+23
0 21   8.000   8.400    3  346.35385  234.91   4.2696510E+23  1.3321426E+20  1.4096300E+20  2.7786473E+16  1.3664895E+17  4.9824442E+16  7.2455287E+17  8.9276576E+22  3.8008219E+21
                                                              1.2814825E+14  3.0228093E+13  9.8416019E+12  2.4907990E+13  6.0520674E+13  1.9101045E+10  1.1426170E+11  4.0217247E+13
                                                              7.2617322E+11  1.2814815E+12  4.3477412E+09  2.2665329E+14  2.0688381E+13  1.9824983E+12  3.3361257E+23
0 22   8.400   8.800    3  326.67523  232.31   4.0721404E+23  9.0802253E+19  1.3445688E+20  3.1473701E+16  1.3026054E+17  4.6029920E+16  6.9045887E+17  8.5156070E+22  3.6172192E+21
                                                              1.2223360E+14  2.7763631E+13  9.4199276E+12  1.9130359E+13  5.9986349E+13  1.8398290E+10  1.3400602E+11  3.4209519E+13
                                                              6.9265713E+11  1.2223361E+12  4.2120105E+09  2.1504980E+14  1.8424447E+13  1.8434304E+12  3.1821459E+23
0 23   8.800   9.200    3  308.05447  229.71   3.8880847E+23  6.2022035E+19  1.2838329E+20  3.5556243E+16  1.2427756E+17  4.2539813E+16  6.5857063E+17  8.1309447E+22  3.4672313E+21
                                                              1.1671217E+14  2.5549376E+13  9.0331247E+12  1.4656536E+13  5.9615417E+13  1.7740972E+10  1.5707105E+11  2.9144723E+13
                                                              6.6136834E+11  1.1671201E+12  4.1056589E+09  2.0424893E+14  1.6441836E+13  1.7198924E+12  3.0384054E+23
0 24   9.200   9.600    3  290.13547  227.15   3.6987538E+23  4.2509820E+19  1.2214347E+20  3.9187419E+16  1.1802080E+17  3.9011884E+16  6.2545149E+17  7.7357556E+22  3.2793411E+21
                                                              1.1103957E+14  2.3557558E+13  8.6748839E+12  1.0932141E+13  5.9613198E+13  1.7053641E+10  1.8178269E+11  2.4822776E+13
                                                              6.2922437E+11  1.1103947E+12  4.1128276E+09  1.9328319E+14  1.4712233E+13  1.6219128E+12  2.8907302E+23
0 25   9.600  10.000    3  273.19861  224.59   3.5225405E+23  2.9204056E+19  1.1632593E+20  4.3087301E+16  1.1217419E+17  3.5787791E+16  5.9453514E+17  7.3673139E+22  3.1297856E+21
                                                              1.0575088E+14  2.1763912E+13  8.3465355E+12  8.1278114E+12  5.9771768E+13  1.6411045E+10  2.1029665E+11  2.1175592E+13
                                                              5.9925535E+11  1.0575087E+12  4.1455805E+09  1.8309170E+14  1.3192368E+13  1.5348092E+12  2.7530481E+23
0 26  10.000  10.400    3  257.02994  222.01   3.3525257E+23  2.0648276E+19  1.1071390E+20  4.8651135E+16  1.0639372E+17  3.2732158E+16  5.6464506E+17  7.0118844E+22  2.9787168E+21
                                                              1.0064909E+14  2.0201775E+13  8.1389095E+12  6.0358708E+12  6.0138963E+13  1.5780364E+10  2.4899487E+11  1.8273236E+13
                                                              5.7034447E+11  1.0064902E+12  4.4311654E+09  1.7318469E+14  1.2042677E+13  1.4761629E+12  2.6202290E+23
0 27  10.400  10.800    3  241.59918  219.41   3.1886037E+23  1.5077555E+19  1.0530338E+20  5.6353574E+16  1.0069583E+17  2.9845356E+16  5.3577411E+17  6.6692141E+22  2.8292694E+21
                                                              9.5730383E+13  1.8842540E+13  8.0444680E+12  4.4766389E+12  6.0717806E+13  1.5161939E+10  3.0135386E+11  1.5960302E+13
                                                              5.4247175E+11  9.5730349E+11  5.0162647E+09  1.6357032E+14  1.1197418E+13  1.4433116E+12  2.4921785E+23
0 28  10.800  13.400    3  194.95801  216.79   1.6705566E+24  3.5737629E+19  5.5167667E+20  5.0700278E+17  5.1717804E+17  1.2852126E+17  2.7758317E+18  3.4939520E+23  1.4935378E+22
                                                              5.0084577E+14  9.4605471E+13  5.7264942E+13  1.1015012E+13  4.0175312E+14  8.3295126E+10  3.4699849E+12  8.5986134E+13
                                                              2.8419705E+12  5.0152420E+12  5.9030651E+10  8.2921477E+14  5.7514540E+13  8.3056908E+12  1.3056346E+24
0 29  13.400  15.900    3  130.42139  216.70   1.0760065E+24  6.0675900E+18  3.5530379E+20  6.4105046E+17  3.1928594E+17  4.7778835E+16  1.7373222E+18  2.2502578E+23  9.7309457E+21
                                                              3.0905753E+14  6.1287095E+13  1.4705002E+14  8.9560901E+11  4.5595611E+14  6.8569088E+10  6.6190458E+12  1.4849646E+14
                                                              1.8303531E+12  3.2300351E+12  1.6269364E+11  4.7254780E+14  3.8805722E+13  6.9531819E+12  8.4088568E+23
0 30  15.900  18.400    3   88.10098  216.70   7.2689215E+23  2.8165997E+18  2.4003414E+20  8.9494185E+17  2.0141775E+17  1.7914826E+16  1.1271957E+18  1.5202164E+23  6.5446310E+21
                                                              1.8377370E+14  3.8261272E+13  3.9574668E+14  8.7608025E+10  1.0234029E+15  7.7690438E+10  1.3118894E+13  2.2917883E+14
                                                              1.2365394E+12  2.1821286E+12  4.7546778E+11  2.5120547E+14  2.5426410E+13  9.1272616E+12  5.6808081E+23
0 31  18.400  20.900    3   59.54031  216.82   4.9093221E+23  1.9078819E+18  1.6210520E+20  1.1432015E+18  1.1943214E+17  7.1456713E+15  7.0978939E+17  1.0266663E+23  4.4506013E+21
                                                              1.2393318E+14  1.7455217E+13  6.1334395E+14  1.6045799E+10  1.8116700E+15  9.9603366E+10  2.4655413E+13  2.2866114E+14
                                                              8.3508730E+11  1.4736834E+12  1.7849422E+12  1.2571393E+14  1.6933596E+13  1.3591835E+13  3.8364897E+23
0 32  20.900  23.400    3   40.31368  218.67   3.2958877E+23  1.3473465E+18  1.0883321E+20  1.2026864E+18  6.7973338E+16  4.1498860E+15  4.1782160E+17  6.8927705E+22  2.9773117E+21
                                                              1.0467069E+14  7.6317264E+12  7.2195501E+14  5.7037537E+09  1.7823481E+15  1.7974714E+11  3.3318343E+13  1.8152852E+14
                                                              5.6065576E+11  9.8939267E+11  3.7951510E+12  6.1537738E+13  1.3501578E+13  1.9704838E+13  2.5757189E+23
0 33  23.400  26.000    3   27.24163  221.20   2.2881965E+23  1.0000462E+18  7.5561421E+19  1.1195346E+18  4.1392945E+16  3.3207619E+15  2.4862720E+17  4.7855560E+22  2.0573884E+21
                                                              1.3606596E+14  4.1658134E+12  7.8719194E+14  3.0190313E+09  1.2948418E+15  4.0634404E+11  3.8301076E+13  1.4484187E+14
                                                              3.9121057E+11  6.8692201E+11  7.5020779E+12  2.7554333E+13  1.2583029E+13  2.6741918E+13  1.7882872E+23
0 34  26.000  28.600    3   18.33134  223.73   1.5228409E+23  6.9449738E+17  5.0289199E+19  8.7196371E+17  2.4465877E+16  2.4182577E+15  1.5147173E+17  3.1849821E+22  1.3644646E+21
                                                              1.8519877E+14  2.3812815E+12  7.1385591E+14  1.4659990E+09  7.4257736E+14  7.1593912E+11  3.4123234E+13  1.1396219E+14
                                                              2.6837149E+11  4.5717442E+11  1.2180796E+13  1.0665337E+13  1.0720864E+13  2.6974435E+13  1.1901776E+23
0 35  28.600  30.000    3   13.37327  225.77   5.9831821E+22  2.8025259E+17  1.9756982E+19  3.7880560E+17  8.7657244E+15  1.0039082E+15  5.5941335E+16  1.2512753E+22  5.4039593E+20
                                                              1.2217024E+14  8.3550267E+11  3.4353128E+14  4.2643574E+08  2.4121523E+14  5.5255931E+11  1.5962844E+13  5.4680621E+13
                                                              1.1126279E+11  1.7960890E+11  8.9032344E+12  2.2655955E+12  4.9468230E+12  1.3513352E+13  4.6758191E+22



1   ------------------------------------
            LAYER     I I
   L     BOUNDARIES   T P     PBAR     TBAR                        MOLECULAR MIXING RATIOS BY LAYER
        FROM     TO   Y T
        (KM)    (KM)  P H     (MB)      (K)         AIR            H2O            CO2             O3            N2O             CO            CH4             O2          OTHER   
                                                                    NO            SO2            NO2            NH3           HNO3             OH             HF            HCL   
                                                                   HBR             HI            CLO            OCS           H2CO           HOCL             N2   
0  1   0.000   0.400    3  989.30115  286.91   9.9860001E+23  7.3879627E-03  3.3026593E-04  2.7141606E-08  3.2025790E-07  1.4911399E-07  1.7013699E-06  2.0916848E-01  8.7925397E+21
                                                              3.0024180E-10  2.9489700E-10  2.3018532E-11  5.0040316E-10  5.1828309E-11  4.4035468E-14  1.0008048E-14  9.4546837E-10
                                                              1.7013704E-12  3.0024191E-12  1.0008048E-14  5.9848226E-10  2.0545989E-09  8.2171891E-12  7.8162915E-01
0  2   0.400   0.800    3  943.08356  284.31   9.6065332E+23  6.7024347E-03  3.3027548E-04  2.8214972E-08  3.2026708E-07  1.4710986E-07  1.7014172E-06  2.0917442E-01  8.4375840E+21
                                                              3.0025057E-10  2.8440345E-10  2.3019177E-11  5.0041754E-10  5.5602044E-11  4.4036677E-14  1.0008337E-14  8.4227170E-10
                                                              1.7014177E-12  3.0025056E-12  1.0008337E-14  5.9448896E-10  1.4873341E-09  9.3381761E-12  7.8165108E-01
0  3   0.800   1.200    3  898.89032  281.71   9.2520747E+23  6.0725631E-03  3.3027990E-04  2.9333808E-08  3.2027137E-07  1.4511676E-07  1.7014429E-06  2.0917702E-01  8.1192335E+21
                                                              3.0025460E-10  2.7349839E-10  2.3019522E-11  4.9853438E-10  5.9574616E-11  4.4037338E-14  1.0112157E-14  7.5033130E-10
                                                              1.7014403E-12  3.0025461E-12  1.0008478E-14  5.9050587E-10  1.0688797E-09  1.0515177E-11  7.8166163E-01
0  4   1.200   1.600    3  855.97083  279.11   8.8815402E+23  5.4569710E-03  3.3027367E-04  3.0518375E-08  3.2026509E-07  1.4306451E-07  1.7014090E-06  2.0917323E-01  7.8141417E+21
                                                              3.0024883E-10  2.5841893E-10  2.3019081E-11  4.8532783E-10  6.3355148E-11  4.4036443E-14  1.0872470E-14  6.6840522E-10
                                                              1.7014087E-12  3.0024889E-12  1.0008287E-14  5.8647909E-10  7.3086481E-10  1.1221862E-11  7.8164804E-01
0  5   1.600   2.000    3  814.96820  276.51   8.5356075E+23  4.8966752E-03  3.3026142E-04  3.1756947E-08  3.2025335E-07  1.4102478E-07  1.7013464E-06  2.0916550E-01  7.5464477E+21
                                                              3.0023758E-10  2.4342905E-10  2.3018197E-11  4.7061210E-10  6.7291436E-11  4.4034837E-14  1.1810669E-14  5.9541005E-10
                                                              1.7013440E-12  3.0023755E-12  1.0007908E-14  5.8246075E-10  4.9501675E-10  1.1870547E-11  7.8161758E-01
0  6   2.000   2.400    3  775.50073  273.91   8.1992657E+23  4.3053646E-03  3.3023136E-04  3.2552279E-08  3.2022419E-07  1.3899074E-07  1.7011913E-06  2.0914631E-01  7.3267441E+21
                                                              3.0021044E-10  2.2628027E-10  2.3016101E-11  4.4560861E-10  7.1203002E-11  4.4030836E-14  1.3535976E-14  5.3080762E-10
                                                              1.7011913E-12  3.0021012E-12  1.0007014E-14  5.7840571E-10  3.6133599E-10  1.2045530E-11  7.8154695E-01
0  7   2.400   2.800    3  737.51648  271.31   7.8724010E+23  3.7048166E-03  3.3019081E-04  3.2871618E-08  3.2018480E-07  1.3696516E-07  1.7009825E-06  2.0912068E-01  7.1343503E+21
                                                              3.0017325E-10  2.0745790E-10  2.3013274E-11  4.1170034E-10  7.5062366E-11  4.4025395E-14  1.6340326E-14  4.7361320E-10
                                                              1.7009812E-12  3.0017304E-12  1.0005774E-14  5.7432498E-10  2.8689010E-10  1.1721694E-11  7.8145087E-01
0  8   2.800   3.200    3  701.29150  268.71   7.5673242E+23  3.1861605E-03  3.3015496E-04  3.3187838E-08  3.2015066E-07  1.3502823E-07  1.7007978E-06  2.0909816E-01  6.9408036E+21
                                                              3.0014102E-10  1.8978165E-10  2.3010828E-11  3.7893264E-10  7.9062701E-11  4.4020739E-14  1.9733925E-14  4.2268836E-10
                                                              1.7008005E-12  3.0014131E-12  1.0004710E-14  5.7037441E-10  2.2876094E-10  1.1360527E-11  7.8136820E-01
0  9   3.200   3.600    3  666.24176  266.11   7.2505064E+23  2.7296445E-03  3.3014966E-04  3.3468663E-08  3.2014549E-07  1.3347402E-07  1.7007734E-06  2.0909479E-01  6.6656157E+21
                                                              3.0013611E-10  1.7121764E-10  2.3010434E-11  3.4057465E-10  8.2839943E-11  4.4020001E-14  2.3890530E-14  3.7782838E-10
                                                              1.7007714E-12  3.0013648E-12  1.0004542E-14  5.6705540E-10  1.8759808E-10  1.0739574E-11  7.8135449E-01
0 10   3.600   4.000    3  632.84338  263.51   6.9550055E+23  2.3368825E-03  3.3014253E-04  3.3744573E-08  3.2013838E-07  1.3199458E-07  1.7007336E-06  2.0909025E-01  6.4116847E+21
                                                              3.0012959E-10  1.5409150E-10  2.3009919E-11  3.0482183E-10  8.6721789E-11  4.4018988E-14  2.8933470E-14  3.3781294E-10
                                                              1.7007337E-12  3.0012978E-12  1.0004318E-14  5.6384647E-10  1.5461779E-10  1.0108946E-11  7.8133708E-01
0 11   4.000   4.400    3  600.74927  260.91   6.6680159E+23  1.9828915E-03  3.3015606E-04  3.4615283E-08  3.2015151E-07  1.3108277E-07  1.7008052E-06  2.0909886E-01  6.1217250E+21
                                                              3.0014213E-10  1.4006370E-10  2.3010890E-11  2.6927774E-10  9.0430545E-11  4.4020848E-14  3.5714429E-14  3.0153344E-10
                                                              1.7008028E-12  3.0014179E-12  1.0004734E-14  5.6086880E-10  1.3111165E-10  9.4222321E-12  7.8136986E-01
0 12   4.400   4.800    3  569.91516  258.31   6.3894405E+23  1.6664859E-03  3.3019006E-04  3.6123296E-08  3.2018428E-07  1.3073578E-07  1.7009800E-06  2.0912050E-01  5.8028701E+21
                                                              3.0017266E-10  1.2864176E-10  2.3013244E-11  2.3460664E-10  9.3927144E-11  4.4025374E-14  4.4887068E-14  2.6867242E-10
                                                              1.7009786E-12  3.0017289E-12  1.0005755E-14  5.5812116E-10  1.1461322E-10  8.6928303E-12  7.8145003E-01
0 13   4.800   5.200    3  540.57709  255.71   6.1295497E+23  1.4020121E-03  3.3020793E-04  3.7668329E-08  3.2020213E-07  1.3035333E-07  1.7010722E-06  2.0913173E-01  5.5360408E+21
                                                              3.0018926E-10  1.1824788E-10  2.3014510E-11  2.0449051E-10  9.7725335E-11  4.4027702E-14  5.6166663E-14  2.3937846E-10
                                                              1.7010720E-12  3.0018906E-12  1.0006297E-14  5.5535615E-10  1.0037954E-10  8.0120147E-12  7.8149152E-01
0 14   5.200   5.600    3  512.23163  253.11   5.8606538E+23  1.1875634E-03  3.3019466E-04  3.9040209E-08  3.2018889E-07  1.2977678E-07  1.7010030E-06  2.0912330E-01  5.3173460E+21
                                                              3.0017697E-10  1.0927133E-10  2.3013579E-11  1.7877654E-10  1.0274410E-10  4.4025984E-14  6.8561666E-14  2.1323601E-10
                                                              1.7010039E-12  3.0017679E-12  1.0005904E-14  5.5252580E-10  8.8986693E-11  7.3405934E-12  7.8146058E-01
0 15   5.600   6.000    3  485.28656  250.51   5.6099957E+23  1.0070757E-03  3.3015833E-04  4.0424151E-08  3.2015328E-07  1.2916281E-07  1.7008152E-06  2.0910022E-01  5.1518297E+21
                                                              3.0014363E-10  1.0106323E-10  2.3011017E-11  1.5636936E-10  1.0820218E-10  4.4021092E-14  8.3361777E-14  1.8993039E-10
                                                              1.7008138E-12  3.0014402E-12  1.0004794E-14  5.4966715E-10  7.9050808E-11  6.7180623E-12  7.8137487E-01
0 16   6.000   6.400    3  459.44778  247.91   5.3669350E+23  8.4286201E-04  3.3017795E-04  4.2796966E-08  3.2017272E-07  1.2804536E-07  1.7007169E-06  2.0911272E-01  4.8978267E+21
                                                              3.0016153E-10  9.4188414E-11  2.3012401E-11  1.3531959E-10  1.1390244E-10  4.4043569E-14  1.0182933E-13  1.6869260E-10
                                                              1.7009155E-12  3.0016159E-12  1.0005387E-14  5.4669802E-10  7.1443032E-11  6.2123245E-12  7.8142130E-01
0 17   6.400   6.800    3  434.67453  245.31   5.1313773E+23  6.9547904E-04  3.3025458E-04  4.6322508E-08  3.2024724E-07  1.2642850E-07  1.7007139E-06  2.0916142E-01  4.5652089E+21
                                                              3.0023181E-10  8.8479328E-11  2.3017737E-11  1.1577723E-10  1.1985293E-10  4.4093855E-14  1.2494340E-13  1.4937758E-10
                                                              1.7013128E-12  3.0023145E-12  1.0007715E-14  5.4361771E-10  6.5742543E-11  5.8068502E-12  7.8160328E-01
0 18   6.800   7.200    3  411.16086  242.71   4.9117119E+23  5.7479338E-04  3.3030327E-04  5.0077208E-08  3.2029433E-07  1.2470760E-07  1.7005119E-06  2.0919198E-01  4.2989561E+21
                                                              3.0027547E-10  8.3174218E-11  2.3021151E-11  9.8905391E-11  1.2592478E-10  4.4155106E-14  1.5283471E-13  1.3240740E-10
                                                              1.7015623E-12  3.0027556E-12  1.0014100E-14  5.4050348E-10  6.0554430E-11  5.4344151E-12  7.8171802E-01
0 19   7.200   7.600    3  388.46005  240.11   4.6850630E+23  4.8020811E-04  3.3030304E-04  5.3764367E-08  3.2029368E-07  1.2230593E-07  1.6997623E-06  2.0919204E-01  4.1012300E+21
                                                              3.0027555E-10  7.8554468E-11  2.3021130E-11  8.3691117E-11  1.3115622E-10  4.4299600E-14  1.8378697E-13  1.1815837E-10
                                                              1.7015615E-12  3.0027573E-12  1.0048952E-14  5.3729193E-10  5.6128324E-11  5.1261504E-12  7.8171742E-01
0 20   7.600   8.000    3  366.93665  237.51   4.4739216E+23  4.0193132E-04  3.3026992E-04  5.7653317E-08  3.2026162E-07  1.1982418E-07  1.6987909E-06  2.0917079E-01  3.9614383E+21
                                                              3.0024541E-10  7.4245547E-11  2.3018819E-11  7.0690793E-11  1.3639627E-10  4.4455471E-14  2.2039472E-13  1.0555892E-10
                                                              1.7013900E-12  3.0024544E-12  1.0088012E-14  5.3403970E-10  5.2078512E-11  4.8415794E-12  7.8163868E-01
0 21   8.000   8.400    3  346.35385  234.91   4.2696510E+23  3.1210008E-04  3.3025417E-04  6.5099343E-08  3.2014702E-07  1.1673084E-07  1.6975135E-06  2.0916100E-01  3.8008219E+21
                                                              3.0023123E-10  7.0819677E-11  2.3057327E-11  5.8355508E-11  1.4179043E-10  4.4750746E-14  2.6769721E-13  9.4222692E-11
                                                              1.7013098E-12  3.0023098E-12  1.0186074E-14  5.3101307E-10  4.8469628E-11  4.6446822E-12  7.8160185E-01
0 22   8.400   8.800    3  326.67523  232.31   4.0721404E+23  2.2303381E-04  3.3026087E-04  7.7307547E-08  3.1995359E-07  1.1306139E-07  1.6959456E-06  2.0916533E-01  3.6172192E+21
                                                              3.0023733E-10  6.8194658E-11  2.3137778E-11  4.6989111E-11  1.4734199E-10  4.5190959E-14  3.2915345E-13  8.4027431E-11
                                                              1.7013451E-12  3.0023735E-12  1.0345787E-14  5.2821791E-10  4.5255209E-11  4.5279418E-12  7.8161734E-01
0 23   8.800   9.200    3  308.05447  229.71   3.8880847E+23  1.5954366E-04  3.3024940E-04  9.1463839E-08  3.1968796E-07  1.0942816E-07  1.6940877E-06  2.0915803E-01  3.4672313E+21
                                                              3.0022695E-10  6.5722462E-11  2.3236545E-11  3.7702043E-11  1.5335294E-10  4.5636356E-14  4.0404496E-13  7.4971029E-11
                                                              1.7012845E-12  3.0022655E-12  1.0561276E-14  5.2540394E-10  4.2294498E-11  4.4242010E-12  7.8159046E-01
0 24   9.200   9.600    3  290.13547  227.15   3.6987538E+23  1.1494333E-04  3.3026669E-04  1.0595981E-07  3.1911927E-07  1.0548517E-07  1.6911733E-06  2.0916896E-01  3.2793411E+21
                                                              3.0024255E-10  6.3697853E-11  2.3456228E-11  2.9559681E-11  1.6118956E-10  4.6111752E-14  4.9152658E-13  6.7118901E-11
                                                              1.7013749E-12  3.0024230E-12  1.1120773E-14  5.2262311E-10  3.9780762E-11  4.3855293E-12  7.8163153E-01
0 25   9.600  10.000    3  273.19861  224.59   3.5225405E+23  8.2913102E-05  3.3026040E-04  1.2232896E-07  3.1847324E-07  1.0160495E-07  1.6879420E-06  2.0916507E-01  3.1297856E+21
                                                              3.0023684E-10  6.1789823E-11  2.3696611E-11  2.3075632E-11  1.6969776E-10  4.6592521E-14  5.9705225E-13  6.0119527E-11
                                                              1.7013431E-12  3.0023681E-12  1.1769699E-14  5.1981480E-10  3.7454394E-11  4.3574697E-12  7.8161663E-01
0 26  10.000  10.400    3  257.02994  222.01   3.3525257E+23  6.1594001E-05  3.3026061E-04  1.4512679E-07  3.1737346E-07  9.7640338E-08  1.6843416E-06  2.0916517E-01  2.9787168E+21
                                                              3.0023720E-10  6.0262087E-11  2.4278444E-11  1.8005059E-11  1.7939510E-10  4.7072975E-14  7.4275406E-13  5.4509237E-11
                                                              1.7013430E-12  3.0023698E-12  1.3218208E-14  5.1661159E-10  3.5923420E-11  4.4034078E-12  7.8161681E-01
0 27  10.400  10.800    3  241.59918  219.41   3.1886037E+23  4.7287998E-05  3.3026483E-04  1.7674270E-07  3.1581411E-07  9.3604513E-08  1.6803577E-06  2.0916773E-01  2.8292694E+21
                                                              3.0024089E-10  5.9096186E-11  2.5230006E-11  1.4040161E-11  1.9043031E-10  4.7552653E-14  9.4514143E-13  5.0056573E-11
                                                              1.7013637E-12  3.0024078E-12  1.5732599E-14  5.1300847E-10  3.5118658E-11  4.5266837E-12  7.8162634E-01
0 28  10.800  13.400    3  194.95801  216.79   1.6705566E+24  2.1393107E-05  3.3024233E-04  3.0349986E-07  3.0959092E-07  7.6934853E-08  1.6616566E-06  2.0915347E-01  1.4935378E+22
                                                              2.9981417E-10  5.6632324E-11  3.4279697E-11  6.5937594E-12  2.4049573E-10  4.9861774E-14  2.0771876E-12  5.1472653E-11
                                                              1.7012483E-12  3.0022029E-12  3.5336676E-14  4.9638099E-10  3.4429109E-11  4.9719174E-12  7.8157341E-01
0 29  13.400  15.900    3  130.42139  216.70   1.0760065E+24  5.6390218E-06  3.3020784E-04  5.9577155E-07  2.9673402E-07  4.4404104E-08  1.6146111E-06  2.0913167E-01  9.7309457E+21
                                                              2.8722807E-10  5.6958244E-11  1.3666353E-10  8.3235003E-13  4.2375084E-10  6.3725894E-14  6.1515268E-12  1.3800781E-10
                                                              1.7010709E-12  3.0018900E-12  1.5120221E-13  4.3917064E-10  3.6064783E-11  6.4620622E-12  7.8149194E-01
0 30  15.900  18.400    3   88.10098  216.70   7.2689215E+23  3.8748672E-06  3.3022102E-04  1.2311941E-06  2.7709547E-07  2.4645878E-08  1.5507115E-06  2.0914000E-01  6.5446310E+21
                                                              2.5282212E-10  5.2636995E-11  5.4443866E-10  1.2052458E-13  1.4079212E-09  1.0688070E-13  1.8047994E-11  3.1528710E-10
                                                              1.7011385E-12  3.0020094E-12  6.5411299E-13  3.4558970E-10  3.4979752E-11  1.2556604E-11  7.8152311E-01
0 31  18.400  20.900    3   59.54031  216.82   4.9093221E+23  3.8862581E-06  3.3020004E-04  2.3286432E-06  2.4327719E-07  1.4555368E-08  1.4458049E-06  2.0912670E-01  4.4506013E+21
                                                              2.5244556E-10  3.5555388E-11  1.2493504E-09  3.2684477E-14  3.6902794E-09  2.0288698E-13  5.0221820E-11  4.6577109E-10
                                                              1.7010303E-12  3.0018180E-12  3.6358362E-12  2.5607286E-10  3.4492874E-11  2.7685876E-11  7.8147340E-01
0 32  20.900  23.400    3   40.31368  218.67   3.2958877E+23  4.0879791E-06  3.3021043E-04  3.6490662E-06  2.0623764E-07  1.2591154E-08  1.2677109E-06  2.0913330E-01  2.9773117E+21
                                                              3.1758093E-10  2.3155393E-11  2.1904809E-09  1.7305737E-14  5.4078155E-09  5.4537012E-13  1.0109106E-10  5.5077498E-10
                                                              1.7010835E-12  3.0019125E-12  1.1514853E-11  1.8671142E-10  4.0965085E-11  5.9786377E-11  7.8149790E-01
0 33  23.400  26.000    3   27.24163  221.20   2.2881965E+23  4.3704754E-06  3.3022408E-04  4.8926722E-06  1.8089848E-07  1.4512637E-08  1.0865689E-06  2.0914188E-01  2.0573884E+21
                                                              5.9464544E-10  1.8205744E-11  3.4402441E-09  1.3193993E-14  5.6588125E-09  1.7758346E-12  1.6738617E-10  6.3299854E-10
                                                              1.7096972E-12  3.0020370E-12  3.2786131E-11  1.2041997E-10  5.4991279E-11  1.1686949E-10  7.8153038E-01
0 34  26.000  28.600    3   18.33134  223.73   1.5228409E+23  4.5605593E-06  3.3023432E-04  5.7259281E-06  1.6066019E-07  1.5879984E-08  9.9467013E-07  2.0914836E-01  1.3644646E+21
                                                              1.2161456E-09  1.5637172E-11  4.6876809E-09  9.6267819E-15  4.8762860E-09  4.7013608E-12  2.2407720E-10  7.4835604E-10
                                                              1.7623163E-12  3.0021294E-12  7.9987690E-11  7.0036116E-11  7.0400748E-11  1.7713314E-10  7.8155446E-01
0 35  28.600  30.000    3   13.37327  225.77   5.9831821E+22  4.6840278E-06  3.3021014E-04  6.3312023E-06  1.4650675E-07  1.6778912E-08  9.3498068E-07  2.0913304E-01  5.4039593E+20
                                                              2.0419038E-09  1.3964251E-11  5.7416418E-09  7.1272732E-15  4.0315729E-09  9.2352515E-12  2.6679647E-10  9.1390961E-10
                                                              1.8596008E-12  3.0019099E-12  1.4880504E-10  3.7866241E-11  8.2679183E-11  2.2585667E-10  7.8149736E-01
0
0  L  PATH BOUNDARIES      PBAR     TBAR                        ACCUMULATED MOLECULAR AMOUNTS FOR TOTAL PATH
        FROM     TO
        (KM)    (KM)       (MB)      (K)      AIR        H2O       CO2        O3       N2O        CO       CH4        O2     OTHER   
                                                          NO       SO2       NO2       NH3      HNO3        OH        HF       HCL   
                                                         HBR        HI       CLO       OCS      H2CO      HOCL        N2   
0 35   0.000  30.000    511.95004  250.37  2.127E+25 4.714E+22 7.008E+21 7.538E+18 6.575E+18 2.371E+18 3.524E+19 4.438E+24 1.906E+23
                                                     6.615E+15 2.941E+15 4.161E+15 4.689E+15 9.351E+15 2.915E+12 1.716E+14 7.614E+15
                                                     3.612E+13 6.370E+13 3.503E+13 1.104E+16 7.197E+15 2.640E+14 1.658E+25
                                                                                
                                                                                
                                                ********************************
                                                 SPECTROSCOPIC FILE INFORMATION 
                                                ********************************
C	path:		$Source$                           
C	author:		$Author$                                                                         
C	revision:	$Revision$                                                                        
C	created:	$Date$                                                             
C***************************************************************************************************
C	This is the spectroscopic data file. It contains all the line information necessary to            
C	process the lines contribution. It is based on HITRAN 1996 except for the water vapor             
C	intensities at 0.74 cm-1 (22.233 GHz) and 6.11 cm-1 (183 GHz) -these are based on                 
C	work performed by S.A. Clough 2002-. This file covers the microwave and the submillimeter         
C	regions. It could be used for frequencies up to 55 cm-1 (1648 GHz).                               
C	Jan 17th 2002. AER Inc, SAB.                                                                      
C                                                                                                   
c---------------------------------------------------------------------------------------------------
c       O2 line widths and line coupling parameters for the 60 GHz band and the 120 GHz line have be
c       changed to those of Tretyakov et al, 2005.                                                  
c                                                                                                   
c 	Number of lines flagged for the ISPD=1 (fast) option has been increased. 79 extra lines have     
c       been flagged in order to make the ISPD=1 option more accurate for higher frequencies and    
c	drier atmospheres.                                                                                
c                                                                                                   
c       July 24, 2006  Vivienne Payne                                                               
c --------------------------------------------------------------------------------------------------
c                                                                                                   
c       O2 line coupling parameters have been modified: Y parameter was scaled by 0.87              
c                                                       G parameter was set to zero.                
c       September 18, 2003                                                                          
c                                                                                                   
C	The spectroscopic information should start right after the line that begins with a                
C	dollar ($) sign.                                                                                  
C***************************************************************************************************
$                                                                                                   

--------------------------------------
Modules and versions used in this calculation:

Release 2.20   

     spectral file :     $Revision: 2.5 
     monortm.f     :     $Revision$Revision: 2.10
     monortm_sub.f :     $Revision$Revision: 
